   2   2   0   0
  0.3953030E+02  0.2467000E-09  0.2467000E-09  0.1500000E-08  0.5000000E-15
  1.000000000000000E-004
  CAR 
 Dielectric                              
     87.55130594    -26.96248064 4000     -2.25319378      1.00000000
    -26.962  0.0000E+00  0.0000E+00
    -26.934  0.0000E+00  0.0000E+00
    -26.905  0.0000E+00  0.0000E+00
    -26.877  0.0000E+00  0.0000E+00
    -26.848  0.0000E+00  0.0000E+00
    -26.819  0.0000E+00  0.0000E+00
    -26.791  0.0000E+00  0.0000E+00
    -26.762  0.0000E+00  0.0000E+00
    -26.733  0.0000E+00  0.0000E+00
    -26.705  0.0000E+00  0.0000E+00
    -26.676  0.0000E+00  0.0000E+00
    -26.647  0.0000E+00  0.0000E+00
    -26.619  0.0000E+00  0.0000E+00
    -26.590  0.0000E+00  0.0000E+00
    -26.562  0.0000E+00  0.0000E+00
    -26.533  0.0000E+00  0.0000E+00
    -26.504  0.0000E+00  0.0000E+00
    -26.476  0.0000E+00  0.0000E+00
    -26.447  0.0000E+00  0.0000E+00
    -26.418  0.0000E+00  0.0000E+00
    -26.390  0.0000E+00  0.0000E+00
    -26.361  0.0000E+00  0.0000E+00
    -26.332  0.0000E+00  0.0000E+00
    -26.304  0.0000E+00  0.0000E+00
    -26.275  0.0000E+00  0.0000E+00
    -26.247  0.0000E+00  0.0000E+00
    -26.218  0.0000E+00  0.0000E+00
    -26.189  0.0000E+00  0.0000E+00
    -26.161  0.0000E+00  0.0000E+00
    -26.132  0.0000E+00  0.0000E+00
    -26.103  0.0000E+00  0.0000E+00
    -26.075  0.0000E+00  0.0000E+00
    -26.046  0.0000E+00  0.0000E+00
    -26.018  0.0000E+00  0.0000E+00
    -25.989  0.0000E+00  0.0000E+00
    -25.960  0.0000E+00  0.0000E+00
    -25.932  0.0000E+00  0.0000E+00
    -25.903  0.0000E+00  0.0000E+00
    -25.874  0.0000E+00  0.0000E+00
    -25.846  0.0000E+00  0.0000E+00
    -25.817  0.0000E+00  0.0000E+00
    -25.788  0.0000E+00  0.0000E+00
    -25.760  0.0000E+00  0.0000E+00
    -25.731  0.0000E+00  0.0000E+00
    -25.703  0.0000E+00  0.0000E+00
    -25.674  0.0000E+00  0.0000E+00
    -25.645  0.0000E+00  0.0000E+00
    -25.617  0.0000E+00  0.0000E+00
    -25.588  0.0000E+00  0.0000E+00
    -25.559  0.0000E+00  0.0000E+00
    -25.531  0.0000E+00  0.0000E+00
    -25.502  0.0000E+00  0.0000E+00
    -25.473  0.0000E+00  0.0000E+00
    -25.445  0.0000E+00  0.0000E+00
    -25.416  0.0000E+00  0.0000E+00
    -25.388  0.0000E+00  0.0000E+00
    -25.359  0.0000E+00  0.0000E+00
    -25.330  0.0000E+00  0.0000E+00
    -25.302  0.0000E+00  0.0000E+00
    -25.273  0.0000E+00  0.0000E+00
    -25.244  0.0000E+00  0.0000E+00
    -25.216  0.0000E+00  0.0000E+00
    -25.187  0.0000E+00  0.0000E+00
    -25.158  0.0000E+00  0.0000E+00
    -25.130  0.0000E+00  0.0000E+00
    -25.101  0.0000E+00  0.0000E+00
    -25.073  0.0000E+00  0.0000E+00
    -25.044  0.0000E+00  0.0000E+00
    -25.015  0.0000E+00  0.0000E+00
    -24.987  0.0000E+00  0.0000E+00
    -24.958  0.0000E+00  0.0000E+00
    -24.929  0.0000E+00  0.0000E+00
    -24.901  0.0000E+00  0.0000E+00
    -24.872  0.0000E+00  0.0000E+00
    -24.843  0.0000E+00  0.0000E+00
    -24.815  0.0000E+00  0.0000E+00
    -24.786  0.0000E+00  0.0000E+00
    -24.758  0.0000E+00  0.0000E+00
    -24.729  0.0000E+00  0.0000E+00
    -24.700  0.0000E+00  0.0000E+00
    -24.672  0.0000E+00  0.0000E+00
    -24.643  0.0000E+00  0.0000E+00
    -24.614  0.0000E+00  0.0000E+00
    -24.586  0.0000E+00  0.0000E+00
    -24.557  0.0000E+00  0.0000E+00
    -24.528  0.0000E+00  0.0000E+00
    -24.500  0.0000E+00  0.0000E+00
    -24.471  0.0000E+00  0.0000E+00
    -24.443  0.0000E+00  0.0000E+00
    -24.414  0.0000E+00  0.0000E+00
    -24.385  0.0000E+00  0.0000E+00
    -24.357  0.0000E+00  0.0000E+00
    -24.328  0.0000E+00  0.0000E+00
    -24.299  0.0000E+00  0.0000E+00
    -24.271  0.0000E+00  0.0000E+00
    -24.242  0.0000E+00  0.0000E+00
    -24.213  0.0000E+00  0.0000E+00
    -24.185  0.0000E+00  0.0000E+00
    -24.156  0.0000E+00  0.0000E+00
    -24.128  0.0000E+00  0.0000E+00
    -24.099  0.0000E+00  0.0000E+00
    -24.070  0.0000E+00  0.0000E+00
    -24.042  0.0000E+00  0.0000E+00
    -24.013  0.0000E+00  0.0000E+00
    -23.984  0.0000E+00  0.0000E+00
    -23.956  0.0000E+00  0.0000E+00
    -23.927  0.0000E+00  0.0000E+00
    -23.898  0.0000E+00  0.0000E+00
    -23.870  0.0000E+00  0.0000E+00
    -23.841  0.0000E+00  0.0000E+00
    -23.813  0.0000E+00  0.0000E+00
    -23.784  0.0000E+00  0.0000E+00
    -23.755  0.0000E+00  0.0000E+00
    -23.727  0.0000E+00  0.0000E+00
    -23.698  0.0000E+00  0.0000E+00
    -23.669  0.0000E+00  0.0000E+00
    -23.641  0.0000E+00  0.0000E+00
    -23.612  0.0000E+00  0.0000E+00
    -23.583  0.0000E+00  0.0000E+00
    -23.555  0.0000E+00  0.0000E+00
    -23.526  0.0000E+00  0.0000E+00
    -23.498  0.0000E+00  0.0000E+00
    -23.469  0.0000E+00  0.0000E+00
    -23.440  0.0000E+00  0.0000E+00
    -23.412  0.0000E+00  0.0000E+00
    -23.383  0.0000E+00  0.0000E+00
    -23.354  0.0000E+00  0.0000E+00
    -23.326  0.0000E+00  0.0000E+00
    -23.297  0.0000E+00  0.0000E+00
    -23.268  0.0000E+00  0.0000E+00
    -23.240  0.0000E+00  0.0000E+00
    -23.211  0.0000E+00  0.0000E+00
    -23.183  0.0000E+00  0.0000E+00
    -23.154  0.0000E+00  0.0000E+00
    -23.125  0.0000E+00  0.0000E+00
    -23.097  0.0000E+00  0.0000E+00
    -23.068  0.0000E+00  0.0000E+00
    -23.039  0.0000E+00  0.0000E+00
    -23.011  0.0000E+00  0.0000E+00
    -22.982  0.0000E+00  0.0000E+00
    -22.953  0.0000E+00  0.0000E+00
    -22.925  0.0000E+00  0.0000E+00
    -22.896  0.0000E+00  0.0000E+00
    -22.868  0.0000E+00  0.0000E+00
    -22.839  0.0000E+00  0.0000E+00
    -22.810  0.0000E+00  0.0000E+00
    -22.782  0.0000E+00  0.0000E+00
    -22.753  0.0000E+00  0.0000E+00
    -22.724  0.0000E+00  0.0000E+00
    -22.696  0.0000E+00  0.0000E+00
    -22.667  0.0000E+00  0.0000E+00
    -22.639  0.0000E+00  0.0000E+00
    -22.610  0.0000E+00  0.0000E+00
    -22.581  0.0000E+00  0.0000E+00
    -22.553  0.0000E+00  0.0000E+00
    -22.524  0.0000E+00  0.0000E+00
    -22.495  0.0000E+00  0.0000E+00
    -22.467  0.0000E+00  0.0000E+00
    -22.438  0.0000E+00  0.0000E+00
    -22.409  0.0000E+00  0.0000E+00
    -22.381  0.0000E+00  0.0000E+00
    -22.352  0.0000E+00  0.0000E+00
    -22.324  0.0000E+00  0.0000E+00
    -22.295  0.0000E+00  0.0000E+00
    -22.266  0.0000E+00  0.0000E+00
    -22.238  0.0000E+00  0.0000E+00
    -22.209  0.0000E+00  0.0000E+00
    -22.180  0.0000E+00  0.0000E+00
    -22.152  0.0000E+00  0.0000E+00
    -22.123  0.0000E+00  0.0000E+00
    -22.094  0.0000E+00  0.0000E+00
    -22.066  0.0000E+00  0.0000E+00
    -22.037  0.0000E+00  0.0000E+00
    -22.009  0.0000E+00  0.0000E+00
    -21.980  0.0000E+00  0.0000E+00
    -21.951  0.0000E+00  0.0000E+00
    -21.923  0.0000E+00  0.0000E+00
    -21.894  0.0000E+00  0.0000E+00
    -21.865  0.0000E+00  0.0000E+00
    -21.837  0.0000E+00  0.0000E+00
    -21.808  0.3571E-14  0.1022E-15
    -21.779  0.1819E-04  0.5208E-06
    -21.751  0.7704E-01  0.2207E-02
    -21.722  0.2997E+00  0.1079E-01
    -21.694  0.3066E+00  0.1957E-01
    -21.665  0.3095E+00  0.2843E-01
    -21.636  0.3044E+00  0.3715E-01
    -21.608  0.3035E+00  0.4584E-01
    -21.579  0.3067E+00  0.5462E-01
    -21.550  0.3060E+00  0.6339E-01
    -21.522  0.3045E+00  0.7211E-01
    -21.493  0.3106E+00  0.8100E-01
    -21.464  0.3173E+00  0.9009E-01
    -21.436  0.3199E+00  0.9925E-01
    -21.407  0.2992E+00  0.1078E+00
    -21.379  0.2855E+00  0.1160E+00
    -21.350  0.3289E+00  0.1254E+00
    -21.321  0.3197E+00  0.1346E+00
    -21.293  0.2769E+00  0.1425E+00
    -21.264  0.3382E+00  0.1522E+00
    -21.235  0.3081E+00  0.1610E+00
    -21.207  0.2859E+00  0.1692E+00
    -21.178  0.3446E+00  0.1791E+00
    -21.149  0.2658E+00  0.1867E+00
    -21.121  0.3481E+00  0.1966E+00
    -21.092  0.2817E+00  0.2047E+00
    -21.064  0.3303E+00  0.2142E+00
    -21.035  0.2951E+00  0.2226E+00
    -21.006  0.3153E+00  0.2316E+00
    -20.978  0.2992E+00  0.2402E+00
    -20.949  0.3130E+00  0.2492E+00
    -20.920  0.3114E+00  0.2581E+00
    -20.892  0.3255E+00  0.2674E+00
    -20.863  0.2857E+00  0.2756E+00
    -20.834  0.3363E+00  0.2852E+00
    -20.806  0.2589E+00  0.2926E+00
    -20.777  0.3705E+00  0.3032E+00
    -20.749  0.2599E+00  0.3107E+00
    -20.720  0.3656E+00  0.3212E+00
    -20.691  0.2571E+00  0.3285E+00
    -20.663  0.3439E+00  0.3384E+00
    -20.634  0.3236E+00  0.3476E+00
    -20.605  0.2662E+00  0.3553E+00
    -20.577  0.3583E+00  0.3655E+00
    -20.548  0.2671E+00  0.3732E+00
    -20.519  0.3686E+00  0.3837E+00
    -20.491  0.2731E+00  0.3915E+00
    -20.462  0.2874E+00  0.3998E+00
    -20.434  0.3783E+00  0.4106E+00
    -20.405  0.2379E+00  0.4174E+00
    -20.376  0.3638E+00  0.4278E+00
    -20.348  0.3215E+00  0.4370E+00
    -20.319  0.2310E+00  0.4437E+00
    -20.290  0.4067E+00  0.4553E+00
    -20.262  0.2829E+00  0.4634E+00
    -20.233  0.2629E+00  0.4709E+00
    -20.204  0.4031E+00  0.4825E+00
    -20.176  0.2534E+00  0.4897E+00
    -20.147  0.3169E+00  0.4988E+00
    -20.119  0.3655E+00  0.5093E+00
    -20.090  0.2391E+00  0.5161E+00
    -20.061  0.3549E+00  0.5263E+00
    -20.033  0.3171E+00  0.5354E+00
    -20.004  0.2609E+00  0.5428E+00
    -19.975  0.3650E+00  0.5533E+00
    -19.947  0.3156E+00  0.5623E+00
    -19.918  0.2876E+00  0.5706E+00
    -19.889  0.3251E+00  0.5799E+00
    -19.861  0.3589E+00  0.5901E+00
    -19.832  0.2449E+00  0.5972E+00
    -19.804  0.3354E+00  0.6068E+00
    -19.775  0.3518E+00  0.6168E+00
    -19.746  0.2632E+00  0.6244E+00
    -19.718  0.3271E+00  0.6337E+00
    -19.689  0.3554E+00  0.6439E+00
    -19.660  0.2964E+00  0.6524E+00
    -19.632  0.2318E+00  0.6590E+00
    -19.603  0.4337E+00  0.6715E+00
    -19.574  0.2727E+00  0.6793E+00
    -19.546  0.2892E+00  0.6876E+00
    -19.517  0.3631E+00  0.6980E+00
    -19.489  0.3229E+00  0.7072E+00
    -19.460  0.2421E+00  0.7141E+00
    -19.431  0.3703E+00  0.7247E+00
    -19.403  0.3464E+00  0.7347E+00
    -19.374  0.2821E+00  0.7427E+00
    -19.345  0.2397E+00  0.7496E+00
    -19.317  0.4369E+00  0.7621E+00
    -19.288  0.2995E+00  0.7707E+00
    -19.260  0.2620E+00  0.7782E+00
    -19.231  0.3326E+00  0.7877E+00
    -19.202  0.3821E+00  0.7986E+00
    -19.174  0.2702E+00  0.8064E+00
    -19.145  0.2746E+00  0.8142E+00
    -19.116  0.3728E+00  0.8249E+00
    -19.088  0.3533E+00  0.8350E+00
    -19.059  0.2433E+00  0.8420E+00
    -19.030  0.3493E+00  0.8520E+00
    -19.002  0.3351E+00  0.8616E+00
    -18.973  0.3419E+00  0.8714E+00
    -18.945  0.2243E+00  0.8778E+00
    -18.916  0.4070E+00  0.8895E+00
    -18.887  0.3214E+00  0.8987E+00
    -18.859  0.3164E+00  0.9077E+00
    -18.830  0.2289E+00  0.9143E+00
    -18.801  0.4187E+00  0.9263E+00
    -18.773  0.3365E+00  0.9359E+00
    -18.744  0.2599E+00  0.9434E+00
    -18.715  0.3002E+00  0.9520E+00
    -18.687  0.3977E+00  0.9633E+00
    -18.658  0.3422E+00  0.9731E+00
    -18.630  0.2119E+00  0.9792E+00
    -18.601  0.3815E+00  0.9901E+00
    -18.572  0.3747E+00  0.1001E+01
    -18.544  0.2967E+00  0.1009E+01
    -18.515  0.2709E+00  0.1017E+01
    -18.486  0.3469E+00  0.1027E+01
    -18.458  0.3711E+00  0.1038E+01
    -18.429  0.2806E+00  0.1046E+01
    -18.400  0.3183E+00  0.1055E+01
    -18.372  0.2930E+00  0.1063E+01
    -18.343  0.4266E+00  0.1075E+01
    -18.315  0.2968E+00  0.1084E+01
    -18.286  0.2453E+00  0.1091E+01
    -18.257  0.3793E+00  0.1102E+01
    -18.229  0.3622E+00  0.1112E+01
    -18.200  0.3129E+00  0.1121E+01
    -18.171  0.2652E+00  0.1129E+01
    -18.143  0.3549E+00  0.1139E+01
    -18.114  0.3701E+00  0.1150E+01
    -18.085  0.3375E+00  0.1159E+01
    -18.057  0.2817E+00  0.1167E+01
    -18.028  0.2619E+00  0.1175E+01
    -18.000  0.4834E+00  0.1189E+01
    -17.971  0.2602E+00  0.1196E+01
    -17.942  0.3126E+00  0.1205E+01
    -17.914  0.2907E+00  0.1213E+01
    -17.885  0.3828E+00  0.1224E+01
    -17.856  0.3982E+00  0.1236E+01
    -17.828  0.2558E+00  0.1243E+01
    -17.799  0.2799E+00  0.1251E+01
    -17.770  0.4206E+00  0.1263E+01
    -17.742  0.3163E+00  0.1272E+01
    -17.713  0.3437E+00  0.1282E+01
    -17.685  0.2596E+00  0.1289E+01
    -17.656  0.3763E+00  0.1300E+01
    -17.627  0.4068E+00  0.1312E+01
    -17.599  0.2938E+00  0.1320E+01
    -17.570  0.2957E+00  0.1329E+01
    -17.541  0.2916E+00  0.1337E+01
    -17.513  0.4554E+00  0.1350E+01
    -17.484  0.3441E+00  0.1360E+01
    -17.455  0.2989E+00  0.1369E+01
    -17.427  0.2668E+00  0.1376E+01
    -17.398  0.4096E+00  0.1388E+01
    -17.370  0.3873E+00  0.1399E+01
    -17.341  0.3142E+00  0.1408E+01
    -17.312  0.3097E+00  0.1417E+01
    -17.284  0.3121E+00  0.1426E+01
    -17.255  0.4208E+00  0.1438E+01
    -17.226  0.3576E+00  0.1448E+01
    -17.198  0.2893E+00  0.1456E+01
    -17.169  0.3243E+00  0.1466E+01
    -17.140  0.4145E+00  0.1477E+01
    -17.112  0.3667E+00  0.1488E+01
    -17.083  0.3480E+00  0.1498E+01
    -17.055  0.2564E+00  0.1505E+01
    -17.026  0.4187E+00  0.1517E+01
    -16.997  0.4066E+00  0.1529E+01
    -16.969  0.3594E+00  0.1539E+01
    -16.940  0.3354E+00  0.1549E+01
    -16.911  0.2356E+00  0.1556E+01
    -16.883  0.5352E+00  0.1571E+01
    -16.854  0.3598E+00  0.1581E+01
    -16.825  0.3685E+00  0.1592E+01
    -16.797  0.3204E+00  0.1601E+01
    -16.768  0.3501E+00  0.1611E+01
    -16.740  0.4784E+00  0.1625E+01
    -16.711  0.4269E+00  0.1637E+01
    -16.682  0.3344E+00  0.1646E+01
    -16.654  0.3537E+00  0.1657E+01
    -16.625  0.4876E+00  0.1671E+01
    -16.596  0.5025E+00  0.1685E+01
    -16.568  0.4283E+00  0.1697E+01
    -16.539  0.4419E+00  0.1710E+01
    -16.510  0.5490E+00  0.1726E+01
    -16.482  0.6251E+00  0.1743E+01
    -16.453  0.4500E+00  0.1756E+01
    -16.425  0.3888E+00  0.1767E+01
    -16.396  0.3050E+00  0.1776E+01
    -16.367  0.3486E+00  0.1786E+01
    -16.339  0.4694E+00  0.1800E+01
    -16.310  0.2537E+00  0.1807E+01
    -16.281  0.3081E+00  0.1816E+01
    -16.253  0.1780E+00  0.1821E+01
    -16.224  0.3800E+00  0.1832E+01
    -16.195  0.3520E+00  0.1842E+01
    -16.167  0.1570E+00  0.1846E+01
    -16.138  0.2451E+00  0.1853E+01
    -16.110  0.2050E+00  0.1859E+01
    -16.081  0.2993E+00  0.1868E+01
    -16.052  0.2781E+00  0.1876E+01
    -16.024  0.2013E+00  0.1881E+01
    -15.995  0.4350E-01  0.1883E+01
    -15.966  0.2716E+00  0.1891E+01
    -15.938  0.4235E+00  0.1903E+01
    -15.909  0.4768E-01  0.1904E+01
    -15.881  0.4810E-01  0.1905E+01
    -15.852  0.1453E+00  0.1910E+01
    -15.823  0.4559E+00  0.1923E+01
    -15.795  0.5141E-01  0.1924E+01
    -15.766  0.5349E-01  0.1926E+01
    -15.737  0.1116E+00  0.1929E+01
    -15.709  0.3822E+00  0.1940E+01
    -15.680  0.6103E-01  0.1941E+01
    -15.651  0.5716E-01  0.1943E+01
    -15.623  0.9671E-01  0.1946E+01
    -15.594  0.2303E+00  0.1952E+01
    -15.566  0.1433E+00  0.1957E+01
    -15.537  0.5231E-01  0.1958E+01
    -15.508  0.8182E-01  0.1960E+01
    -15.480  0.1299E+00  0.1964E+01
    -15.451  0.3552E+00  0.1974E+01
    -15.422  0.2754E+00  0.1982E+01
    -15.394  0.3213E+00  0.1991E+01
    -15.365  0.2976E+00  0.2000E+01
    -15.336  0.4170E+00  0.2012E+01
    -15.308  0.2574E+00  0.2019E+01
    -15.279  0.3372E+00  0.2029E+01
    -15.251  0.2897E+00  0.2037E+01
    -15.222  0.4180E+00  0.2049E+01
    -15.193  0.2269E+00  0.2056E+01
    -15.165  0.3988E+00  0.2067E+01
    -15.136  0.2678E+00  0.2075E+01
    -15.107  0.4196E+00  0.2087E+01
    -15.079  0.2464E+00  0.2094E+01
    -15.050  0.3659E+00  0.2104E+01
    -15.021  0.3309E+00  0.2114E+01
    -14.993  0.3242E+00  0.2123E+01
    -14.964  0.3500E+00  0.2133E+01
    -14.936  0.2659E+00  0.2141E+01
    -14.907  0.4085E+00  0.2152E+01
    -14.878  0.2859E+00  0.2161E+01
    -14.850  0.3394E+00  0.2170E+01
    -14.821  0.3557E+00  0.2180E+01
    -14.792  0.2945E+00  0.2189E+01
    -14.764  0.4380E+00  0.2201E+01
    -14.735  0.3067E+00  0.2210E+01
    -14.706  0.4334E+00  0.2223E+01
    -14.678  0.4189E+00  0.2235E+01
    -14.649  0.3938E+00  0.2246E+01
    -14.621  0.5525E+00  0.2262E+01
    -14.592  0.6493E+00  0.2280E+01
    -14.563  0.4355E+00  0.2293E+01
    -14.535  0.4938E+00  0.2307E+01
    -14.506  0.4905E+00  0.2321E+01
    -14.477  0.3021E+00  0.2330E+01
    -14.449  0.5039E+00  0.2344E+01
    -14.420  0.4278E+00  0.2356E+01
    -14.391  0.3733E+00  0.2367E+01
    -14.363  0.4042E+00  0.2379E+01
    -14.334  0.4242E+00  0.2391E+01
    -14.306  0.3115E+00  0.2400E+01
    -14.277  0.4241E+00  0.2412E+01
    -14.248  0.3941E+00  0.2423E+01
    -14.220  0.3521E+00  0.2433E+01
    -14.191  0.3419E+00  0.2443E+01
    -14.162  0.4193E+00  0.2455E+01
    -14.134  0.3134E+00  0.2464E+01
    -14.105  0.3377E+00  0.2474E+01
    -14.076  0.3997E+00  0.2485E+01
    -14.048  0.3489E+00  0.2495E+01
    -14.019  0.2605E+00  0.2503E+01
    -13.991  0.4596E+00  0.2516E+01
    -13.962  0.2675E+00  0.2523E+01
    -13.933  0.3809E+00  0.2534E+01
    -13.905  0.2889E+00  0.2543E+01
    -13.876  0.4291E+00  0.2555E+01
    -13.847  0.1955E+00  0.2560E+01
    -13.819  0.4437E+00  0.2573E+01
    -13.790  0.2968E+00  0.2582E+01
    -13.761  0.3019E+00  0.2590E+01
    -13.733  0.3136E+00  0.2599E+01
    -13.704  0.3428E+00  0.2609E+01
    -13.676  0.3600E+00  0.2619E+01
    -13.647  0.2160E+00  0.2626E+01
    -13.618  0.4014E+00  0.2637E+01
    -13.590  0.2734E+00  0.2645E+01
    -13.561  0.2841E+00  0.2653E+01
    -13.532  0.3551E+00  0.2663E+01
    -13.504  0.2792E+00  0.2671E+01
    -13.475  0.3120E+00  0.2680E+01
    -13.446  0.2864E+00  0.2688E+01
    -13.418  0.3360E+00  0.2698E+01
    -13.389  0.2674E+00  0.2706E+01
    -13.361  0.2575E+00  0.2713E+01
    -13.332  0.3813E+00  0.2724E+01
    -13.303  0.2359E+00  0.2731E+01
    -13.275  0.2751E+00  0.2739E+01
    -13.246  0.3410E+00  0.2748E+01
    -13.217  0.2406E+00  0.2755E+01
    -13.189  0.3034E+00  0.2764E+01
    -13.160  0.3010E+00  0.2772E+01
    -13.131  0.2914E+00  0.2781E+01
    -13.103  0.2600E+00  0.2788E+01
    -13.074  0.2282E+00  0.2795E+01
    -13.046  0.4017E+00  0.2806E+01
    -13.017  0.2128E+00  0.2812E+01
    -12.988  0.1978E+00  0.2818E+01
    -12.960  0.3597E+00  0.2828E+01
    -12.931  0.2999E+00  0.2837E+01
    -12.902  0.2216E+00  0.2843E+01
    -12.874  0.2165E+00  0.2849E+01
    -12.845  0.3109E+00  0.2858E+01
    -12.816  0.3239E+00  0.2868E+01
    -12.788  0.1981E+00  0.2873E+01
    -12.759  0.3697E+00  0.2884E+01
    -12.731  0.3829E+00  0.2895E+01
    -12.702  0.3306E+00  0.2904E+01
    -12.673  0.3217E+00  0.2914E+01
    -12.645  0.4333E+00  0.2926E+01
    -12.616  0.2986E+00  0.2935E+01
    -12.587  0.3424E+00  0.2944E+01
    -12.559  0.4602E+00  0.2957E+01
    -12.530  0.2606E+00  0.2965E+01
    -12.501  0.3762E+00  0.2976E+01
    -12.473  0.4041E+00  0.2987E+01
    -12.444  0.3099E+00  0.2996E+01
    -12.416  0.3820E+00  0.3007E+01
    -12.387  0.3391E+00  0.3017E+01
    -12.358  0.4183E+00  0.3029E+01
    -12.330  0.3803E+00  0.3040E+01
    -12.301  0.2307E+00  0.3046E+01
    -12.272  0.4306E+00  0.3059E+01
    -12.244  0.4689E+00  0.3072E+01
    -12.215  0.2325E+00  0.3079E+01
    -12.187  0.3139E+00  0.3088E+01
    -12.158  0.5127E+00  0.3102E+01
    -12.129  0.3290E+00  0.3112E+01
    -12.101  0.3073E+00  0.3121E+01
    -12.072  0.3590E+00  0.3131E+01
    -12.043  0.4431E+00  0.3144E+01
    -12.015  0.3365E+00  0.3153E+01
    -11.986  0.3819E+00  0.3164E+01
    -11.957  0.2971E+00  0.3173E+01
    -11.929  0.4484E+00  0.3186E+01
    -11.900  0.3855E+00  0.3197E+01
    -11.872  0.3320E+00  0.3206E+01
    -11.843  0.3633E+00  0.3216E+01
    -11.814  0.3911E+00  0.3228E+01
    -11.786  0.3256E+00  0.3237E+01
    -11.757  0.4393E+00  0.3250E+01
    -11.728  0.4552E+00  0.3263E+01
    -11.700  0.2152E+00  0.3269E+01
    -11.671  0.2870E+00  0.3277E+01
    -11.642  0.6505E+00  0.3296E+01
    -11.614  0.3263E+00  0.3305E+01
    -11.585  0.2236E+00  0.3311E+01
    -11.557  0.4526E+00  0.3324E+01
    -11.528  0.3894E+00  0.3335E+01
    -11.499  0.4267E+00  0.3348E+01
    -11.471  0.3370E+00  0.3357E+01
    -11.442  0.4080E+00  0.3369E+01
    -11.413  0.3077E+00  0.3378E+01
    -11.385  0.3815E+00  0.3389E+01
    -11.356  0.5253E+00  0.3404E+01
    -11.327  0.3413E+00  0.3414E+01
    -11.299  0.3368E+00  0.3423E+01
    -11.270  0.3209E+00  0.3432E+01
    -11.242  0.4580E+00  0.3446E+01
    -11.213  0.4905E+00  0.3460E+01
    -11.184  0.3169E+00  0.3469E+01
    -11.156  0.3382E+00  0.3478E+01
    -11.127  0.3599E+00  0.3489E+01
    -11.098  0.5499E+00  0.3504E+01
    -11.070  0.3024E+00  0.3513E+01
    -11.041  0.3535E+00  0.3523E+01
    -11.012  0.5102E+00  0.3538E+01
    -10.984  0.2703E+00  0.3545E+01
    -10.955  0.3851E+00  0.3557E+01
    -10.927  0.5114E+00  0.3571E+01
    -10.898  0.4639E+00  0.3584E+01
    -10.869  0.2093E+00  0.3590E+01
    -10.841  0.4139E+00  0.3602E+01
    -10.812  0.5880E+00  0.3619E+01
    -10.783  0.3528E+00  0.3629E+01
    -10.755  0.2333E+00  0.3636E+01
    -10.726  0.5874E+00  0.3653E+01
    -10.697  0.3553E+00  0.3663E+01
    -10.669  0.3485E+00  0.3673E+01
    -10.640  0.4792E+00  0.3687E+01
    -10.612  0.5081E+00  0.3701E+01
    -10.583  0.2686E+00  0.3709E+01
    -10.554  0.3142E+00  0.3718E+01
    -10.526  0.6517E+00  0.3737E+01
    -10.497  0.4399E+00  0.3749E+01
    -10.468  0.2035E+00  0.3755E+01
    -10.440  0.4837E+00  0.3769E+01
    -10.411  0.5199E+00  0.3784E+01
    -10.382  0.3591E+00  0.3794E+01
    -10.354  0.3523E+00  0.3804E+01
    -10.325  0.6285E+00  0.3822E+01
    -10.297  0.3286E+00  0.3831E+01
    -10.268  0.3282E+00  0.3841E+01
    -10.239  0.4638E+00  0.3854E+01
    -10.211  0.6241E+00  0.3872E+01
    -10.182  0.3245E+00  0.3881E+01
    -10.153  0.2599E+00  0.3889E+01
    -10.125  0.7154E+00  0.3909E+01
    -10.096  0.3773E+00  0.3920E+01
    -10.067  0.3679E+00  0.3931E+01
    -10.039  0.3955E+00  0.3942E+01
    -10.010  0.5250E+00  0.3957E+01
     -9.982  0.4992E+00  0.3971E+01
     -9.953  0.3534E+00  0.3981E+01
     -9.924  0.5539E+00  0.3997E+01
     -9.896  0.4033E+00  0.4009E+01
     -9.867  0.4289E+00  0.4021E+01
     -9.838  0.7026E+00  0.4041E+01
     -9.810  0.8443E+00  0.4065E+01
     -9.781  0.5507E+00  0.4081E+01
     -9.752  0.6465E+00  0.4100E+01
     -9.724  0.1000E+01  0.4128E+01
     -9.695  0.6532E+00  0.4147E+01
     -9.667  0.6658E+00  0.4166E+01
     -9.638  0.5849E+00  0.4183E+01
     -9.609  0.1040E+01  0.4213E+01
     -9.581  0.7004E+00  0.4233E+01
     -9.552  0.5934E+00  0.4250E+01
     -9.523  0.8026E+00  0.4273E+01
     -9.495  0.8394E+00  0.4297E+01
     -9.466  0.7077E+00  0.4317E+01
     -9.437  0.7808E+00  0.4339E+01
     -9.409  0.7526E+00  0.4361E+01
     -9.380  0.8568E+00  0.4385E+01
     -9.352  0.6941E+00  0.4405E+01
     -9.323  0.7553E+00  0.4427E+01
     -9.294  0.9330E+00  0.4454E+01
     -9.266  0.6926E+00  0.4473E+01
     -9.237  0.7896E+00  0.4496E+01
     -9.208  0.8583E+00  0.4521E+01
     -9.180  0.8128E+00  0.4544E+01
     -9.151  0.7801E+00  0.4566E+01
     -9.122  0.8648E+00  0.4591E+01
     -9.094  0.8346E+00  0.4615E+01
     -9.065  0.8686E+00  0.4640E+01
     -9.037  0.7259E+00  0.4660E+01
     -9.008  0.1044E+01  0.4690E+01
     -8.979  0.8714E+00  0.4715E+01
     -8.951  0.7230E+00  0.4736E+01
     -8.922  0.1026E+01  0.4765E+01
     -8.893  0.8271E+00  0.4789E+01
     -8.865  0.9888E+00  0.4817E+01
     -8.836  0.9704E+00  0.4845E+01
     -8.808  0.8936E+00  0.4871E+01
     -8.779  0.1018E+01  0.4900E+01
     -8.750  0.1004E+01  0.4929E+01
     -8.722  0.1150E+01  0.4962E+01
     -8.693  0.1156E+01  0.4995E+01
     -8.664  0.1070E+01  0.5025E+01
     -8.636  0.1552E+01  0.5070E+01
     -8.607  0.1201E+01  0.5104E+01
     -8.578  0.1030E+01  0.5134E+01
     -8.550  0.1045E+01  0.5164E+01
     -8.521  0.1039E+01  0.5193E+01
     -8.493  0.9727E+00  0.5221E+01
     -8.464  0.9138E+00  0.5247E+01
     -8.435  0.8904E+00  0.5273E+01
     -8.407  0.9657E+00  0.5301E+01
     -8.378  0.9215E+00  0.5327E+01
     -8.349  0.7349E+00  0.5348E+01
     -8.321  0.9413E+00  0.5375E+01
     -8.292  0.8847E+00  0.5400E+01
     -8.263  0.7517E+00  0.5422E+01
     -8.235  0.9011E+00  0.5448E+01
     -8.206  0.8235E+00  0.5471E+01
     -8.178  0.6736E+00  0.5491E+01
     -8.149  0.9286E+00  0.5517E+01
     -8.120  0.7972E+00  0.5540E+01
     -8.092  0.7797E+00  0.5562E+01
     -8.063  0.5757E+00  0.5579E+01
     -8.034  0.1022E+01  0.5608E+01
     -8.006  0.6631E+00  0.5627E+01
     -7.977  0.7035E+00  0.5647E+01
     -7.948  0.7582E+00  0.5669E+01
     -7.920  0.8525E+00  0.5693E+01
     -7.891  0.5825E+00  0.5710E+01
     -7.863  0.8119E+00  0.5733E+01
     -7.834  0.7900E+00  0.5756E+01
     -7.805  0.5858E+00  0.5773E+01
     -7.777  0.7418E+00  0.5794E+01
     -7.748  0.7899E+00  0.5816E+01
     -7.719  0.6612E+00  0.5835E+01
     -7.691  0.6322E+00  0.5854E+01
     -7.662  0.7766E+00  0.5876E+01
     -7.633  0.7794E+00  0.5898E+01
     -7.605  0.4877E+00  0.5912E+01
     -7.576  0.7834E+00  0.5934E+01
     -7.548  0.7358E+00  0.5956E+01
     -7.519  0.6024E+00  0.5973E+01
     -7.490  0.6344E+00  0.5991E+01
     -7.462  0.7142E+00  0.6011E+01
     -7.433  0.6931E+00  0.6031E+01
     -7.404  0.7070E+00  0.6051E+01
     -7.376  0.4243E+00  0.6064E+01
     -7.347  0.8347E+00  0.6088E+01
     -7.318  0.6718E+00  0.6107E+01
     -7.290  0.6273E+00  0.6125E+01
     -7.261  0.5340E+00  0.6140E+01
     -7.233  0.7779E+00  0.6162E+01
     -7.204  0.5973E+00  0.6179E+01
     -7.175  0.6629E+00  0.6198E+01
     -7.147  0.5317E+00  0.6214E+01
     -7.118  0.7456E+00  0.6235E+01
     -7.089  0.6665E+00  0.6254E+01
     -7.061  0.4452E+00  0.6267E+01
     -7.032  0.7235E+00  0.6288E+01
     -7.003  0.7108E+00  0.6308E+01
     -6.975  0.5421E+00  0.6323E+01
     -6.946  0.4976E+00  0.6338E+01
     -6.918  0.7678E+00  0.6360E+01
     -6.889  0.6059E+00  0.6377E+01
     -6.860  0.5889E+00  0.6394E+01
     -6.832  0.5415E+00  0.6409E+01
     -6.803  0.5916E+00  0.6426E+01
     -6.774  0.7518E+00  0.6448E+01
     -6.746  0.5414E+00  0.6463E+01
     -6.717  0.5028E+00  0.6478E+01
     -6.688  0.6239E+00  0.6496E+01
     -6.660  0.7589E+00  0.6517E+01
     -6.631  0.4346E+00  0.6530E+01
     -6.603  0.5790E+00  0.6546E+01
     -6.574  0.6737E+00  0.6566E+01
     -6.545  0.4759E+00  0.6579E+01
     -6.517  0.6971E+00  0.6599E+01
     -6.488  0.6138E+00  0.6617E+01
     -6.459  0.3836E+00  0.6628E+01
     -6.431  0.6946E+00  0.6648E+01
     -6.402  0.7508E+00  0.6669E+01
     -6.373  0.3821E+00  0.6680E+01
     -6.345  0.4879E+00  0.6694E+01
     -6.316  0.7837E+00  0.6717E+01
     -6.288  0.5189E+00  0.6731E+01
     -6.259  0.5400E+00  0.6747E+01
     -6.230  0.5375E+00  0.6762E+01
     -6.202  0.5952E+00  0.6779E+01
     -6.173  0.6537E+00  0.6798E+01
     -6.144  0.5354E+00  0.6813E+01
     -6.116  0.4592E+00  0.6827E+01
     -6.087  0.6233E+00  0.6844E+01
     -6.058  0.6637E+00  0.6863E+01
     -6.030  0.4722E+00  0.6877E+01
     -6.001  0.6190E+00  0.6895E+01
     -5.973  0.4744E+00  0.6908E+01
     -5.944  0.6037E+00  0.6925E+01
     -5.915  0.6062E+00  0.6943E+01
     -5.887  0.4925E+00  0.6957E+01
     -5.858  0.6273E+00  0.6975E+01
     -5.829  0.4583E+00  0.6988E+01
     -5.801  0.6812E+00  0.7008E+01
     -5.772  0.5488E+00  0.7023E+01
     -5.743  0.4217E+00  0.7035E+01
     -5.715  0.5916E+00  0.7052E+01
     -5.686  0.6169E+00  0.7070E+01
     -5.658  0.6143E+00  0.7088E+01
     -5.629  0.5098E+00  0.7102E+01
     -5.600  0.5155E+00  0.7117E+01
     -5.572  0.5429E+00  0.7132E+01
     -5.543  0.6500E+00  0.7151E+01
     -5.514  0.5219E+00  0.7166E+01
     -5.486  0.4945E+00  0.7180E+01
     -5.457  0.5304E+00  0.7195E+01
     -5.429  0.6531E+00  0.7214E+01
     -5.400  0.5948E+00  0.7231E+01
     -5.371  0.5087E+00  0.7246E+01
     -5.343  0.5055E+00  0.7260E+01
     -5.314  0.5441E+00  0.7276E+01
     -5.285  0.6756E+00  0.7295E+01
     -5.257  0.3458E+00  0.7305E+01
     -5.228  0.3081E+00  0.7314E+01
     -5.199  0.2964E+00  0.7322E+01
     -5.171  0.4757E+00  0.7336E+01
     -5.142  0.3680E+00  0.7346E+01
     -5.114  0.3577E+00  0.7357E+01
     -5.085  0.3125E+00  0.7366E+01
     -5.056  0.3418E+00  0.7375E+01
     -5.028  0.4798E+00  0.7389E+01
     -4.999  0.4083E+00  0.7401E+01
     -4.970  0.3284E+00  0.7410E+01
     -4.942  0.3505E+00  0.7420E+01
     -4.913  0.4470E+00  0.7433E+01
     -4.884  0.4864E+00  0.7447E+01
     -4.856  0.4078E+00  0.7459E+01
     -4.827  0.3553E+00  0.7469E+01
     -4.799  0.3475E+00  0.7479E+01
     -4.770  0.6054E+00  0.7496E+01
     -4.741  0.5151E+00  0.7511E+01
     -4.713  0.4480E+00  0.7524E+01
     -4.684  0.4329E+00  0.7536E+01
     -4.655  0.4992E+00  0.7550E+01
     -4.627  0.7980E+00  0.7573E+01
     -4.598  0.7684E+00  0.7595E+01
     -4.569  0.5763E+00  0.7612E+01
     -4.541  0.4881E+00  0.7626E+01
     -4.512  0.4826E+00  0.7640E+01
     -4.484  0.5668E+00  0.7656E+01
     -4.455  0.5858E+00  0.7673E+01
     -4.426  0.1388E+00  0.7677E+01
     -4.398  0.2064E+00  0.7682E+01
     -4.369  0.9093E+00  0.7708E+01
     -4.340  0.2295E+00  0.7715E+01
     -4.312  0.1699E+00  0.7720E+01
     -4.283  0.2211E+00  0.7726E+01
     -4.254  0.5207E+00  0.7741E+01
     -4.226  0.4411E+00  0.7754E+01
     -4.197  0.1545E+00  0.7758E+01
     -4.169  0.1966E+00  0.7764E+01
     -4.140  0.2995E+00  0.7772E+01
     -4.111  0.5133E+00  0.7787E+01
     -4.083  0.1907E+00  0.7793E+01
     -4.054  0.1497E+00  0.7797E+01
     -4.025  0.2201E+00  0.7803E+01
     -3.997  0.3074E+00  0.7812E+01
     -3.968  0.3754E+00  0.7823E+01
     -3.939  0.1255E+00  0.7826E+01
     -3.911  0.1777E+00  0.7831E+01
     -3.882  0.2114E+00  0.7837E+01
     -3.854  0.3353E+00  0.7847E+01
     -3.825  0.1853E+00  0.7852E+01
     -3.796  0.1836E+00  0.7858E+01
     -3.768  0.1378E+00  0.7862E+01
     -3.739  0.2209E+00  0.7868E+01
     -3.710  0.2976E+00  0.7876E+01
     -3.682  0.1100E+00  0.7880E+01
     -3.653  0.1545E+00  0.7884E+01
     -3.624  0.1556E+00  0.7888E+01
     -3.596  0.2282E+00  0.7895E+01
     -3.567  0.1944E+00  0.7901E+01
     -3.539  0.9415E-01  0.7903E+01
     -3.510  0.1524E+00  0.7908E+01
     -3.481  0.1420E+00  0.7912E+01
     -3.453  0.2352E+00  0.7918E+01
     -3.424  0.1052E+00  0.7921E+01
     -3.395  0.7914E-01  0.7924E+01
     -3.367  0.1710E+00  0.7929E+01
     -3.338  0.1161E+00  0.7932E+01
     -3.309  0.1815E+00  0.7937E+01
     -3.281  0.9646E-01  0.7940E+01
     -3.252  0.9447E-01  0.7943E+01
     -3.224  0.1019E+00  0.7945E+01
     -3.195  0.1972E+00  0.7951E+01
     -3.166  0.5713E-01  0.7953E+01
     -3.138  0.7729E-01  0.7955E+01
     -3.109  0.9761E-01  0.7958E+01
     -3.080  0.1310E+00  0.7962E+01
     -3.052  0.1051E+00  0.7965E+01
     -3.023  0.7209E-01  0.7967E+01
     -2.994  0.5593E-01  0.7968E+01
     -2.966  0.9789E-01  0.7971E+01
     -2.937  0.1263E+00  0.7975E+01
     -2.909  0.4674E-01  0.7976E+01
     -2.880  0.4160E-01  0.7977E+01
     -2.851  0.9365E-01  0.7980E+01
     -2.823  0.8444E-01  0.7982E+01
     -2.794  0.5627E-01  0.7984E+01
     -2.765  0.3647E-01  0.7985E+01
     -2.737  0.6553E-01  0.7987E+01
     -2.708  0.5946E-01  0.7988E+01
     -2.679  0.6299E-01  0.7990E+01
     -2.651  0.2814E-01  0.7991E+01
     -2.622  0.4160E-01  0.7992E+01
     -2.594  0.3665E-01  0.7993E+01
     -2.565  0.6755E-01  0.7995E+01
     -2.536  0.5726E-02  0.7995E+01
     -2.508  0.1286E-01  0.7996E+01
     -2.479  0.4476E-01  0.7997E+01
     -2.450  0.4243E-01  0.7998E+01
     -2.422  0.6751E-03  0.7998E+01
     -2.393  0.7851E-03  0.7998E+01
     -2.364  0.4812E-01  0.8000E+01
     -2.336  0.1463E-02  0.8000E+01
     -2.307  0.6981E-10  0.8000E+01
     -2.279  0.2761E-05  0.8000E+01
     -2.250  0.1136E-01  0.8000E+01
     -2.221  0.5429E-02  0.8000E+01
     -2.193  0.5494E-07  0.8000E+01
     -2.164  0.2150E-07  0.8000E+01
     -2.135  0.9636E-02  0.8001E+01
     -2.107  0.4069E-01  0.8002E+01
     -2.078  0.3754E-04  0.8002E+01
     -2.050  0.6272E-02  0.8002E+01
     -2.021  0.4391E-01  0.8003E+01
     -1.992  0.4916E-01  0.8005E+01
     -1.964  0.1388E-02  0.8005E+01
     -1.935  0.3291E-01  0.8006E+01
     -1.906  0.6311E-01  0.8007E+01
     -1.878  0.4390E-01  0.8009E+01
     -1.849  0.2452E-01  0.8009E+01
     -1.820  0.5110E-01  0.8011E+01
     -1.792  0.6414E-01  0.8013E+01
     -1.763  0.4522E-01  0.8014E+01
     -1.735  0.7776E-01  0.8016E+01
     -1.706  0.4153E-01  0.8017E+01
     -1.677  0.6157E-01  0.8019E+01
     -1.649  0.1110E+00  0.8022E+01
     -1.620  0.6314E-01  0.8024E+01
     -1.591  0.4660E-01  0.8025E+01
     -1.563  0.9272E-01  0.8028E+01
     -1.534  0.1343E+00  0.8032E+01
     -1.505  0.6575E-01  0.8034E+01
     -1.477  0.1059E+00  0.8037E+01
     -1.448  0.3452E-01  0.8038E+01
     -1.420  0.1941E+00  0.8043E+01
     -1.391  0.1140E+00  0.8047E+01
     -1.362  0.7032E-01  0.8049E+01
     -1.334  0.1084E+00  0.8052E+01
     -1.305  0.1473E+00  0.8056E+01
     -1.276  0.1781E+00  0.8061E+01
     -1.248  0.1137E+00  0.8064E+01
     -1.219  0.8340E-01  0.8067E+01
     -1.190  0.1594E+00  0.8071E+01
     -1.162  0.2389E+00  0.8078E+01
     -1.133  0.1495E+00  0.8082E+01
     -1.105  0.1155E+00  0.8086E+01
     -1.076  0.1138E+00  0.8089E+01
     -1.047  0.3214E+00  0.8098E+01
     -1.019  0.2073E+00  0.8104E+01
     -0.990  0.1627E+00  0.8109E+01
     -0.961  0.1065E+00  0.8112E+01
     -0.933  0.2406E+00  0.8119E+01
     -0.904  0.4350E+00  0.8131E+01
     -0.875  0.1714E+00  0.8136E+01
     -0.847  0.1090E+00  0.8139E+01
     -0.818  0.2437E+00  0.8146E+01
     -0.790  0.6250E+00  0.8164E+01
     -0.761  0.1160E+00  0.8167E+01
     -0.732  0.3367E+00  0.8177E+01
     -0.704  0.3166E+00  0.8186E+01
     -0.675  0.5272E+00  0.8201E+01
     -0.646  0.5016E+00  0.8216E+01
     -0.618  0.4702E+00  0.8229E+01
     -0.589  0.6519E+00  0.8248E+01
     -0.560  0.9958E+00  0.8276E+01
     -0.532  0.8600E+00  0.8301E+01
     -0.503  0.6474E+00  0.8319E+01
     -0.475  0.5134E+00  0.8334E+01
     -0.446  0.4891E+00  0.8348E+01
     -0.417  0.5084E+00  0.8363E+01
     -0.389  0.5914E+00  0.8380E+01
     -0.360  0.3897E+00  0.8391E+01
     -0.331  0.4157E+00  0.8403E+01
     -0.303  0.4297E+00  0.8415E+01
     -0.274  0.3740E+00  0.8426E+01
     -0.245  0.5224E+00  0.8441E+01
     -0.217  0.3431E+00  0.8450E+01
     -0.188  0.3698E+00  0.8461E+01
     -0.160  0.3184E+00  0.8470E+01
     -0.131  0.4139E+00  0.8482E+01
     -0.102  0.4018E+00  0.8493E+01
     -0.074  0.3237E+00  0.8503E+01
     -0.045  0.3618E+00  0.8513E+01
     -0.016  0.2578E+00  0.8520E+01
      0.012  0.4343E+00  0.8533E+01
      0.041  0.3241E+00  0.8542E+01
      0.070  0.3441E+00  0.8552E+01
      0.098  0.2990E+00  0.8561E+01
      0.127  0.2460E+00  0.8568E+01
      0.155  0.3866E+00  0.8579E+01
      0.184  0.3502E+00  0.8589E+01
      0.213  0.2952E+00  0.8597E+01
      0.241  0.3055E+00  0.8606E+01
      0.270  0.2563E+00  0.8613E+01
      0.299  0.2784E+00  0.8621E+01
      0.327  0.4169E+00  0.8633E+01
      0.356  0.2153E+00  0.8639E+01
      0.385  0.3161E+00  0.8648E+01
      0.413  0.2488E+00  0.8656E+01
      0.442  0.2539E+00  0.8663E+01
      0.470  0.3346E+00  0.8672E+01
      0.499  0.3759E+00  0.8683E+01
      0.528  0.1481E+00  0.8687E+01
      0.556  0.3091E+00  0.8696E+01
      0.585  0.2538E+00  0.8704E+01
      0.614  0.2551E+00  0.8711E+01
      0.642  0.3552E+00  0.8721E+01
      0.671  0.3021E+00  0.8730E+01
      0.700  0.1412E+00  0.8734E+01
      0.728  0.2776E+00  0.8742E+01
      0.757  0.2919E+00  0.8750E+01
      0.785  0.2857E+00  0.8758E+01
      0.814  0.2384E+00  0.8765E+01
      0.843  0.3366E+00  0.8775E+01
      0.871  0.1253E+00  0.8778E+01
      0.900  0.2589E+00  0.8786E+01
      0.929  0.3317E+00  0.8795E+01
      0.957  0.2869E+00  0.8803E+01
      0.986  0.1754E+00  0.8808E+01
      1.015  0.5191E+00  0.8823E+01
      1.043  0.4139E+00  0.8835E+01
      1.072  0.4671E+00  0.8848E+01
      1.100  0.5242E+00  0.8863E+01
      1.129  0.5039E+00  0.8878E+01
      1.158  0.3772E+00  0.8889E+01
      1.186  0.4411E+00  0.8901E+01
      1.215  0.5342E+00  0.8917E+01
      1.244  0.4532E+00  0.8930E+01
      1.272  0.4750E+00  0.8943E+01
      1.301  0.4197E+00  0.8955E+01
      1.329  0.5258E+00  0.8970E+01
      1.358  0.3294E+00  0.8980E+01
      1.387  0.4853E+00  0.8994E+01
      1.415  0.5883E+00  0.9010E+01
      1.444  0.3884E+00  0.9022E+01
      1.473  0.3992E+00  0.9033E+01
      1.501  0.4515E+00  0.9046E+01
      1.530  0.4875E+00  0.9060E+01
      1.559  0.3858E+00  0.9071E+01
      1.587  0.5414E+00  0.9086E+01
      1.616  0.4227E+00  0.9099E+01
      1.644  0.4635E+00  0.9112E+01
      1.673  0.2959E+00  0.9120E+01
      1.702  0.5668E+00  0.9137E+01
      1.730  0.4416E+00  0.9149E+01
      1.759  0.4770E+00  0.9163E+01
      1.788  0.3730E+00  0.9174E+01
      1.816  0.4552E+00  0.9187E+01
      1.845  0.4456E+00  0.9199E+01
      1.874  0.4061E+00  0.9211E+01
      1.902  0.7784E+00  0.9233E+01
      1.931  0.6939E+00  0.9253E+01
      1.959  0.5585E+00  0.9269E+01
      1.988  0.6280E+00  0.9287E+01
      2.017  0.7178E+00  0.9308E+01
      2.045  0.6177E+00  0.9325E+01
      2.074  0.7349E+00  0.9346E+01
      2.103  0.5795E+00  0.9363E+01
      2.131  0.7107E+00  0.9383E+01
      2.160  0.6597E+00  0.9402E+01
      2.189  0.4718E+00  0.9416E+01
      2.217  0.8316E+00  0.9440E+01
      2.246  0.7076E+00  0.9460E+01
      2.274  0.4932E+00  0.9474E+01
      2.303  0.7685E+00  0.9496E+01
      2.332  0.8305E+00  0.9520E+01
      2.360  0.8886E+00  0.9545E+01
      2.389  0.8223E+00  0.9569E+01
      2.418  0.1016E+01  0.9598E+01
      2.446  0.7786E+00  0.9620E+01
      2.475  0.8650E+00  0.9645E+01
      2.504  0.7831E+00  0.9667E+01
      2.532  0.9077E+00  0.9693E+01
      2.561  0.8962E+00  0.9719E+01
      2.589  0.9321E+00  0.9746E+01
      2.618  0.7797E+00  0.9768E+01
      2.647  0.8266E+00  0.9792E+01
      2.675  0.9452E+00  0.9819E+01
      2.704  0.7664E+00  0.9841E+01
      2.733  0.9426E+00  0.9868E+01
      2.761  0.8221E+00  0.9891E+01
      2.790  0.9416E+00  0.9918E+01
      2.819  0.7839E+00  0.9941E+01
      2.847  0.7256E+00  0.9961E+01
      2.876  0.1030E+01  0.9991E+01
      2.904  0.8883E+00  0.1002E+02
      2.933  0.7390E+00  0.1004E+02
      2.962  0.9029E+00  0.1006E+02
      2.990  0.8463E+00  0.1009E+02
      3.019  0.8815E+00  0.1011E+02
      3.048  0.7624E+00  0.1013E+02
      3.076  0.8739E+00  0.1016E+02
      3.105  0.1034E+01  0.1019E+02
      3.134  0.6538E+00  0.1021E+02
      3.162  0.8330E+00  0.1023E+02
      3.191  0.9185E+00  0.1026E+02
      3.219  0.8752E+00  0.1028E+02
      3.248  0.8233E+00  0.1031E+02
      3.277  0.8330E+00  0.1033E+02
      3.305  0.9663E+00  0.1036E+02
      3.334  0.6785E+00  0.1038E+02
      3.363  0.8627E+00  0.1040E+02
      3.391  0.8762E+00  0.1043E+02
      3.420  0.8843E+00  0.1045E+02
      3.449  0.8352E+00  0.1048E+02
      3.477  0.8559E+00  0.1050E+02
      3.506  0.8485E+00  0.1053E+02
      3.534  0.6639E+00  0.1054E+02
      3.563  0.1081E+01  0.1058E+02
      3.592  0.8440E+00  0.1060E+02
      3.620  0.7718E+00  0.1062E+02
      3.649  0.8000E+00  0.1064E+02
      3.678  0.9088E+00  0.1067E+02
      3.706  0.8132E+00  0.1069E+02
      3.735  0.8503E+00  0.1072E+02
      3.764  0.8225E+00  0.1074E+02
      3.792  0.9084E+00  0.1077E+02
      3.821  0.9135E+00  0.1079E+02
      3.849  0.7321E+00  0.1082E+02
      3.878  0.8063E+00  0.1084E+02
      3.907  0.8908E+00  0.1086E+02
      3.935  0.9582E+00  0.1089E+02
      3.964  0.8084E+00  0.1091E+02
      3.993  0.7933E+00  0.1094E+02
      4.021  0.9737E+00  0.1096E+02
      4.050  0.6793E+00  0.1098E+02
      4.079  0.1078E+01  0.1102E+02
      4.107  0.8796E+00  0.1104E+02
      4.136  0.1154E+01  0.1107E+02
      4.164  0.7942E+00  0.1110E+02
      4.193  0.8144E+00  0.1112E+02
      4.222  0.1046E+01  0.1115E+02
      4.250  0.9120E+00  0.1118E+02
      4.279  0.7206E+00  0.1120E+02
      4.308  0.8301E+00  0.1122E+02
      4.336  0.9362E+00  0.1125E+02
      4.365  0.6269E+00  0.1126E+02
      4.394  0.6533E+00  0.1128E+02
      4.422  0.6278E+00  0.1130E+02
      4.451  0.1082E+01  0.1133E+02
      4.479  0.1373E+01  0.1137E+02
      4.508  0.1237E+01  0.1141E+02
      4.537  0.1112E+01  0.1144E+02
      4.565  0.1147E+01  0.1147E+02
      4.594  0.1151E+01  0.1150E+02
      4.623  0.1098E+01  0.1154E+02
      4.651  0.1114E+01  0.1157E+02
      4.680  0.1092E+01  0.1160E+02
      4.708  0.1041E+01  0.1163E+02
      4.737  0.9594E+00  0.1166E+02
      4.766  0.1058E+01  0.1169E+02
      4.794  0.1264E+01  0.1172E+02
      4.823  0.1036E+01  0.1175E+02
      4.852  0.1041E+01  0.1178E+02
      4.880  0.8989E+00  0.1181E+02
      4.909  0.1094E+01  0.1184E+02
      4.938  0.1218E+01  0.1187E+02
      4.966  0.1013E+01  0.1190E+02
      4.995  0.1073E+01  0.1193E+02
      5.023  0.8821E+00  0.1196E+02
      5.052  0.1388E+01  0.1200E+02
      5.081  0.1371E+01  0.1204E+02
      5.109  0.1216E+01  0.1207E+02
      5.138  0.1810E+01  0.1213E+02
      5.167  0.1692E+01  0.1217E+02
      5.195  0.1965E+01  0.1223E+02
      5.224  0.1913E+01  0.1228E+02
      5.253  0.1918E+01  0.1234E+02
      5.281  0.1888E+01  0.1239E+02
      5.310  0.1704E+01  0.1244E+02
      5.338  0.1662E+01  0.1249E+02
      5.367  0.1761E+01  0.1254E+02
      5.396  0.1493E+01  0.1258E+02
      5.424  0.1816E+01  0.1264E+02
      5.453  0.1970E+01  0.1269E+02
      5.482  0.1800E+01  0.1274E+02
      5.510  0.1884E+01  0.1280E+02
      5.539  0.1770E+01  0.1285E+02
      5.568  0.1779E+01  0.1290E+02
      5.596  0.1618E+01  0.1295E+02
      5.625  0.2006E+01  0.1300E+02
      5.653  0.2051E+01  0.1306E+02
      5.682  0.2024E+01  0.1312E+02
      5.711  0.1782E+01  0.1317E+02
      5.739  0.1770E+01  0.1322E+02
      5.768  0.1537E+01  0.1327E+02
      5.797  0.1609E+01  0.1331E+02
      5.825  0.1656E+01  0.1336E+02
      5.854  0.1819E+01  0.1341E+02
      5.883  0.2211E+01  0.1347E+02
      5.911  0.2162E+01  0.1354E+02
      5.940  0.2301E+01  0.1360E+02
      5.968  0.2039E+01  0.1366E+02
      5.997  0.2022E+01  0.1372E+02
      6.026  0.2142E+01  0.1378E+02
      6.054  0.1658E+01  0.1383E+02
      6.083  0.2323E+01  0.1389E+02
      6.112  0.2138E+01  0.1395E+02
      6.140  0.2449E+01  0.1402E+02
      6.169  0.3558E+01  0.1413E+02
      6.198  0.2715E+01  0.1420E+02
      6.226  0.2648E+01  0.1428E+02
      6.255  0.2191E+01  0.1434E+02
      6.283  0.2014E+01  0.1440E+02
      6.312  0.2540E+01  0.1447E+02
      6.341  0.1868E+01  0.1453E+02
      6.369  0.2368E+01  0.1459E+02
      6.398  0.2155E+01  0.1466E+02
      6.427  0.1686E+01  0.1470E+02
      6.455  0.1739E+01  0.1475E+02
      6.484  0.2216E+01  0.1482E+02
      6.513  0.2235E+01  0.1488E+02
      6.541  0.1950E+01  0.1494E+02
      6.570  0.1645E+01  0.1498E+02
      6.598  0.1522E+01  0.1503E+02
      6.627  0.2043E+01  0.1509E+02
      6.656  0.2150E+01  0.1515E+02
      6.684  0.1898E+01  0.1520E+02
      6.713  0.1636E+01  0.1525E+02
      6.742  0.1812E+01  0.1530E+02
      6.770  0.1599E+01  0.1535E+02
      6.799  0.1903E+01  0.1540E+02
      6.828  0.1893E+01  0.1546E+02
      6.856  0.2089E+01  0.1552E+02
      6.885  0.1416E+01  0.1556E+02
      6.913  0.1520E+01  0.1560E+02
      6.942  0.1951E+01  0.1566E+02
      6.971  0.1724E+01  0.1571E+02
      6.999  0.1948E+01  0.1576E+02
      7.028  0.1732E+01  0.1581E+02
      7.057  0.1443E+01  0.1585E+02
      7.085  0.1826E+01  0.1590E+02
      7.114  0.1704E+01  0.1595E+02
      7.143  0.1758E+01  0.1600E+02
      7.171  0.1771E+01  0.1605E+02
      7.200  0.1425E+01  0.1609E+02
      7.228  0.1913E+01  0.1615E+02
      7.257  0.1883E+01  0.1620E+02
      7.286  0.1406E+01  0.1624E+02
      7.314  0.1753E+01  0.1629E+02
      7.343  0.1496E+01  0.1634E+02
      7.372  0.1979E+01  0.1639E+02
      7.400  0.1497E+01  0.1644E+02
      7.429  0.1746E+01  0.1649E+02
      7.458  0.1633E+01  0.1653E+02
      7.486  0.1687E+01  0.1658E+02
      7.515  0.1729E+01  0.1663E+02
      7.543  0.1462E+01  0.1667E+02
      7.572  0.1679E+01  0.1672E+02
      7.601  0.1610E+01  0.1677E+02
      7.629  0.2062E+01  0.1683E+02
      7.658  0.1344E+01  0.1686E+02
      7.687  0.1770E+01  0.1692E+02
      7.715  0.1575E+01  0.1696E+02
      7.744  0.1445E+01  0.1700E+02
      7.773  0.1696E+01  0.1705E+02
      7.801  0.2001E+01  0.1711E+02
      7.830  0.1574E+01  0.1715E+02
      7.858  0.1345E+01  0.1719E+02
      7.887  0.1870E+01  0.1724E+02
      7.916  0.1586E+01  0.1729E+02
      7.944  0.1521E+01  0.1733E+02
      7.973  0.1570E+01  0.1738E+02
      8.002  0.1832E+01  0.1743E+02
      8.030  0.1767E+01  0.1748E+02
      8.059  0.1581E+01  0.1753E+02
      8.088  0.1699E+01  0.1758E+02
      8.116  0.1269E+01  0.1761E+02
      8.145  0.1691E+01  0.1766E+02
      8.173  0.2080E+01  0.1772E+02
      8.202  0.2031E+01  0.1778E+02
      8.231  0.1787E+01  0.1783E+02
      8.259  0.1937E+01  0.1788E+02
      8.288  0.1752E+01  0.1793E+02
      8.317  0.1922E+01  0.1799E+02
      8.345  0.1941E+01  0.1805E+02
      8.374  0.2085E+01  0.1811E+02
      8.402  0.2316E+01  0.1817E+02
      8.431  0.1908E+01  0.1823E+02
      8.460  0.2705E+01  0.1830E+02
      8.488  0.2431E+01  0.1837E+02
      8.517  0.2562E+01  0.1845E+02
      8.546  0.2069E+01  0.1851E+02
      8.574  0.2345E+01  0.1857E+02
      8.603  0.2496E+01  0.1864E+02
      8.632  0.1996E+01  0.1870E+02
      8.660  0.1946E+01  0.1876E+02
      8.689  0.2031E+01  0.1882E+02
      8.717  0.2329E+01  0.1888E+02
      8.746  0.1772E+01  0.1893E+02
      8.775  0.1916E+01  0.1899E+02
      8.803  0.2067E+01  0.1905E+02
      8.832  0.2092E+01  0.1911E+02
      8.861  0.1995E+01  0.1916E+02
      8.889  0.1940E+01  0.1922E+02
      8.918  0.2133E+01  0.1928E+02
      8.947  0.1507E+01  0.1932E+02
      8.975  0.1810E+01  0.1938E+02
      9.004  0.1945E+01  0.1943E+02
      9.032  0.2266E+01  0.1950E+02
      9.061  0.1694E+01  0.1954E+02
      9.090  0.1949E+01  0.1960E+02
      9.118  0.1815E+01  0.1965E+02
      9.147  0.1879E+01  0.1971E+02
      9.176  0.1688E+01  0.1975E+02
      9.204  0.1839E+01  0.1981E+02
      9.233  0.1871E+01  0.1986E+02
      9.262  0.2030E+01  0.1992E+02
      9.290  0.1885E+01  0.1997E+02
      9.319  0.2005E+01  0.2003E+02
      9.347  0.1629E+01  0.2008E+02
      9.376  0.2205E+01  0.2014E+02
      9.405  0.2083E+01  0.2020E+02
      9.433  0.2255E+01  0.2026E+02
      9.462  0.1560E+01  0.2031E+02
      9.491  0.2329E+01  0.2038E+02
      9.519  0.1909E+01  0.2043E+02
      9.548  0.1597E+01  0.2048E+02
      9.577  0.2089E+01  0.2054E+02
      9.605  0.2515E+01  0.2061E+02
      9.634  0.1963E+01  0.2066E+02
      9.662  0.1722E+01  0.2071E+02
      9.691  0.2026E+01  0.2077E+02
      9.720  0.1987E+01  0.2083E+02
      9.748  0.1967E+01  0.2088E+02
      9.777  0.1898E+01  0.2094E+02
      9.806  0.1990E+01  0.2100E+02
      9.834  0.1933E+01  0.2105E+02
      9.863  0.1744E+01  0.2110E+02
      9.892  0.1823E+01  0.2115E+02
      9.920  0.2149E+01  0.2122E+02
      9.949  0.2023E+01  0.2127E+02
      9.977  0.1925E+01  0.2133E+02
     10.006  0.1855E+01  0.2138E+02
     10.035  0.1984E+01  0.2144E+02
     10.063  0.2275E+01  0.2150E+02
     10.092  0.2167E+01  0.2157E+02
     10.121  0.2152E+01  0.2163E+02
     10.149  0.1654E+01  0.2167E+02
     10.178  0.2071E+01  0.2173E+02
     10.207  0.2151E+01  0.2180E+02
     10.235  0.2421E+01  0.2186E+02
     10.264  0.2609E+01  0.2194E+02
     10.292  0.1853E+01  0.2199E+02
     10.321  0.2308E+01  0.2206E+02
     10.350  0.2256E+01  0.2212E+02
     10.378  0.2634E+01  0.2220E+02
     10.407  0.2168E+01  0.2226E+02
     10.436  0.2385E+01  0.2233E+02
     10.464  0.2456E+01  0.2240E+02
     10.493  0.2765E+01  0.2248E+02
     10.522  0.2208E+01  0.2254E+02
     10.550  0.2914E+01  0.2262E+02
     10.579  0.2603E+01  0.2270E+02
     10.607  0.2307E+01  0.2277E+02
     10.636  0.2503E+01  0.2284E+02
     10.665  0.2884E+01  0.2292E+02
     10.693  0.2223E+01  0.2298E+02
     10.722  0.2374E+01  0.2305E+02
     10.751  0.2317E+01  0.2312E+02
     10.779  0.2621E+01  0.2319E+02
     10.808  0.1879E+01  0.2325E+02
     10.837  0.1804E+01  0.2330E+02
     10.865  0.1885E+01  0.2335E+02
     10.894  0.1814E+01  0.2340E+02
     10.922  0.1812E+01  0.2346E+02
     10.951  0.2171E+01  0.2352E+02
     10.980  0.1996E+01  0.2358E+02
     11.008  0.1866E+01  0.2363E+02
     11.037  0.2150E+01  0.2369E+02
     11.066  0.1622E+01  0.2374E+02
     11.094  0.2156E+01  0.2380E+02
     11.123  0.2256E+01  0.2386E+02
     11.152  0.2538E+01  0.2394E+02
     11.180  0.2195E+01  0.2400E+02
     11.209  0.2014E+01  0.2406E+02
     11.237  0.2077E+01  0.2412E+02
     11.266  0.1876E+01  0.2417E+02
     11.295  0.2276E+01  0.2423E+02
     11.323  0.1730E+01  0.2428E+02
     11.352  0.2517E+01  0.2436E+02
     11.381  0.2370E+01  0.2442E+02
     11.409  0.2095E+01  0.2448E+02
     11.438  0.2093E+01  0.2454E+02
     11.467  0.2671E+01  0.2462E+02
     11.495  0.2920E+01  0.2470E+02
     11.524  0.2762E+01  0.2478E+02
     11.552  0.2804E+01  0.2486E+02
     11.581  0.2670E+01  0.2494E+02
     11.610  0.2866E+01  0.2502E+02
     11.638  0.2599E+01  0.2510E+02
     11.667  0.2864E+01  0.2518E+02
     11.696  0.3360E+01  0.2527E+02
     11.724  0.3202E+01  0.2537E+02
     11.753  0.2728E+01  0.2544E+02
     11.781  0.2273E+01  0.2551E+02
     11.810  0.2851E+01  0.2559E+02
     11.839  0.1620E+01  0.2564E+02
     11.867  0.1934E+01  0.2569E+02
     11.896  0.2700E+01  0.2577E+02
     11.925  0.2350E+01  0.2584E+02
     11.953  0.1802E+01  0.2589E+02
     11.982  0.1540E+01  0.2593E+02
     12.011  0.1874E+01  0.2599E+02
     12.039  0.2302E+01  0.2605E+02
     12.068  0.1751E+01  0.2610E+02
     12.096  0.1670E+01  0.2615E+02
     12.125  0.1991E+01  0.2621E+02
     12.154  0.1656E+01  0.2626E+02
     12.182  0.2171E+01  0.2632E+02
     12.211  0.1563E+01  0.2636E+02
     12.240  0.1476E+01  0.2640E+02
     12.268  0.1495E+01  0.2645E+02
     12.297  0.1643E+01  0.2649E+02
     12.326  0.2253E+01  0.2656E+02
     12.354  0.2048E+01  0.2662E+02
     12.383  0.1301E+01  0.2665E+02
     12.411  0.1489E+01  0.2670E+02
     12.440  0.1682E+01  0.2675E+02
     12.469  0.1794E+01  0.2680E+02
     12.497  0.1734E+01  0.2685E+02
     12.526  0.1776E+01  0.2690E+02
     12.555  0.1579E+01  0.2694E+02
     12.583  0.1302E+01  0.2698E+02
     12.612  0.1500E+01  0.2702E+02
     12.641  0.1545E+01  0.2707E+02
     12.669  0.1406E+01  0.2711E+02
     12.698  0.1616E+01  0.2715E+02
     12.726  0.1127E+01  0.2719E+02
     12.755  0.1370E+01  0.2723E+02
     12.784  0.2021E+01  0.2728E+02
     12.812  0.1466E+01  0.2733E+02
     12.841  0.1730E+01  0.2737E+02
     12.870  0.1641E+01  0.2742E+02
     12.898  0.1412E+01  0.2746E+02
     12.927  0.1578E+01  0.2751E+02
     12.956  0.1609E+01  0.2755E+02
     12.984  0.1662E+01  0.2760E+02
     13.013  0.1576E+01  0.2765E+02
     13.041  0.1532E+01  0.2769E+02
     13.070  0.1479E+01  0.2773E+02
     13.099  0.1462E+01  0.2777E+02
     13.127  0.1744E+01  0.2782E+02
     13.156  0.1494E+01  0.2787E+02
     13.185  0.1236E+01  0.2790E+02
     13.213  0.1715E+01  0.2795E+02
     13.242  0.1221E+01  0.2799E+02
     13.271  0.1716E+01  0.2804E+02
     13.299  0.1645E+01  0.2808E+02
     13.328  0.1488E+01  0.2813E+02
     13.356  0.1839E+01  0.2818E+02
     13.385  0.1981E+01  0.2823E+02
     13.414  0.2251E+01  0.2830E+02
     13.442  0.2499E+01  0.2837E+02
     13.471  0.1997E+01  0.2843E+02
     13.500  0.1702E+01  0.2848E+02
     13.528  0.1728E+01  0.2853E+02
     13.557  0.1956E+01  0.2858E+02
     13.586  0.2178E+01  0.2864E+02
     13.614  0.2193E+01  0.2871E+02
     13.643  0.1854E+01  0.2876E+02
     13.671  0.1998E+01  0.2882E+02
     13.700  0.1838E+01  0.2887E+02
     13.729  0.2313E+01  0.2894E+02
     13.757  0.2238E+01  0.2900E+02
     13.786  0.2299E+01  0.2907E+02
     13.815  0.2371E+01  0.2913E+02
     13.843  0.2705E+01  0.2921E+02
     13.872  0.2873E+01  0.2929E+02
     13.901  0.1973E+01  0.2935E+02
     13.929  0.2501E+01  0.2942E+02
     13.958  0.1883E+01  0.2948E+02
     13.986  0.2230E+01  0.2954E+02
     14.015  0.2136E+01  0.2960E+02
     14.044  0.2087E+01  0.2966E+02
     14.072  0.2258E+01  0.2973E+02
     14.101  0.2857E+01  0.2981E+02
     14.130  0.2199E+01  0.2987E+02
     14.158  0.2690E+01  0.2995E+02
     14.187  0.2686E+01  0.3002E+02
     14.216  0.2683E+01  0.3010E+02
     14.244  0.2103E+01  0.3016E+02
     14.273  0.2376E+01  0.3023E+02
     14.301  0.2084E+01  0.3029E+02
     14.330  0.2933E+01  0.3037E+02
     14.359  0.3001E+01  0.3046E+02
     14.387  0.3259E+01  0.3055E+02
     14.416  0.2921E+01  0.3064E+02
     14.445  0.3424E+01  0.3073E+02
     14.473  0.2627E+01  0.3081E+02
     14.502  0.2568E+01  0.3088E+02
     14.531  0.3071E+01  0.3097E+02
     14.559  0.2480E+01  0.3104E+02
     14.588  0.2476E+01  0.3111E+02
     14.616  0.2664E+01  0.3119E+02
     14.645  0.2673E+01  0.3127E+02
     14.674  0.2688E+01  0.3134E+02
     14.702  0.2862E+01  0.3142E+02
     14.731  0.2908E+01  0.3151E+02
     14.760  0.2519E+01  0.3158E+02
     14.788  0.2604E+01  0.3165E+02
     14.817  0.3296E+01  0.3175E+02
     14.846  0.2935E+01  0.3183E+02
     14.874  0.2736E+01  0.3191E+02
     14.903  0.2266E+01  0.3198E+02
     14.931  0.2754E+01  0.3205E+02
     14.960  0.1901E+01  0.3211E+02
     14.989  0.1897E+01  0.3216E+02
     15.017  0.2253E+01  0.3223E+02
     15.046  0.2559E+01  0.3230E+02
     15.075  0.1976E+01  0.3236E+02
     15.103  0.2295E+01  0.3242E+02
     15.132  0.2153E+01  0.3249E+02
     15.160  0.2440E+01  0.3256E+02
     15.189  0.2503E+01  0.3263E+02
     15.218  0.2530E+01  0.3270E+02
     15.246  0.2301E+01  0.3277E+02
     15.275  0.2317E+01  0.3283E+02
     15.304  0.2456E+01  0.3290E+02
     15.332  0.2396E+01  0.3297E+02
     15.361  0.2020E+01  0.3303E+02
     15.390  0.1748E+01  0.3308E+02
     15.418  0.1901E+01  0.3313E+02
     15.447  0.1890E+01  0.3319E+02
     15.475  0.1620E+01  0.3323E+02
     15.504  0.1511E+01  0.3328E+02
     15.533  0.2076E+01  0.3334E+02
     15.561  0.1856E+01  0.3339E+02
     15.590  0.1777E+01  0.3344E+02
     15.619  0.1838E+01  0.3349E+02
     15.647  0.1821E+01  0.3354E+02
     15.676  0.2094E+01  0.3360E+02
     15.705  0.1623E+01  0.3365E+02
     15.733  0.1996E+01  0.3371E+02
     15.762  0.1851E+01  0.3376E+02
     15.790  0.2055E+01  0.3382E+02
     15.819  0.2248E+01  0.3388E+02
     15.848  0.2105E+01  0.3394E+02
     15.876  0.1635E+01  0.3399E+02
     15.905  0.1896E+01  0.3405E+02
     15.934  0.1840E+01  0.3410E+02
     15.962  0.2291E+01  0.3416E+02
     15.991  0.2151E+01  0.3423E+02
     16.020  0.2410E+01  0.3429E+02
     16.048  0.2375E+01  0.3436E+02
     16.077  0.2243E+01  0.3443E+02
     16.105  0.2168E+01  0.3449E+02
     16.134  0.2281E+01  0.3455E+02
     16.163  0.2336E+01  0.3462E+02
     16.191  0.3144E+01  0.3471E+02
     16.220  0.2920E+01  0.3480E+02
     16.249  0.2432E+01  0.3486E+02
     16.277  0.2301E+01  0.3493E+02
     16.306  0.2235E+01  0.3499E+02
     16.335  0.2189E+01  0.3506E+02
     16.363  0.2032E+01  0.3512E+02
     16.392  0.2382E+01  0.3518E+02
     16.420  0.1799E+01  0.3524E+02
     16.449  0.2381E+01  0.3530E+02
     16.478  0.3085E+01  0.3539E+02
     16.506  0.1976E+01  0.3545E+02
     16.535  0.2855E+01  0.3553E+02
     16.564  0.2492E+01  0.3560E+02
     16.592  0.2378E+01  0.3567E+02
     16.621  0.2052E+01  0.3573E+02
     16.650  0.2631E+01  0.3580E+02
     16.678  0.2021E+01  0.3586E+02
     16.707  0.1696E+01  0.3591E+02
     16.735  0.2601E+01  0.3598E+02
     16.764  0.1571E+01  0.3603E+02
     16.793  0.2198E+01  0.3609E+02
     16.821  0.2370E+01  0.3616E+02
     16.850  0.2412E+01  0.3623E+02
     16.879  0.1955E+01  0.3629E+02
     16.907  0.2346E+01  0.3635E+02
     16.936  0.2381E+01  0.3642E+02
     16.965  0.2646E+01  0.3650E+02
     16.993  0.2312E+01  0.3656E+02
     17.022  0.2846E+01  0.3664E+02
     17.050  0.2774E+01  0.3672E+02
     17.079  0.2945E+01  0.3681E+02
     17.108  0.3400E+01  0.3691E+02
     17.136  0.3576E+01  0.3701E+02
     17.165  0.3013E+01  0.3709E+02
     17.194  0.3007E+01  0.3718E+02
     17.222  0.2166E+01  0.3724E+02
     17.251  0.2579E+01  0.3732E+02
     17.280  0.2803E+01  0.3740E+02
     17.308  0.1957E+01  0.3745E+02
     17.337  0.2026E+01  0.3751E+02
     17.365  0.2113E+01  0.3757E+02
     17.394  0.1877E+01  0.3762E+02
     17.423  0.1860E+01  0.3768E+02
     17.451  0.2167E+01  0.3774E+02
     17.480  0.2048E+01  0.3780E+02
     17.509  0.1919E+01  0.3785E+02
     17.537  0.1905E+01  0.3791E+02
     17.566  0.2101E+01  0.3797E+02
     17.595  0.2066E+01  0.3803E+02
     17.623  0.2086E+01  0.3809E+02
     17.652  0.2369E+01  0.3815E+02
     17.680  0.2330E+01  0.3822E+02
     17.709  0.1980E+01  0.3828E+02
     17.738  0.2182E+01  0.3834E+02
     17.766  0.2022E+01  0.3840E+02
     17.795  0.2732E+01  0.3848E+02
     17.824  0.2373E+01  0.3854E+02
     17.852  0.1769E+01  0.3860E+02
     17.881  0.2678E+01  0.3867E+02
     17.910  0.2751E+01  0.3875E+02
     17.938  0.2203E+01  0.3881E+02
     17.967  0.2483E+01  0.3889E+02
     17.995  0.2431E+01  0.3895E+02
     18.024  0.2480E+01  0.3903E+02
     18.053  0.2452E+01  0.3910E+02
     18.081  0.2532E+01  0.3917E+02
     18.110  0.2396E+01  0.3924E+02
     18.139  0.2551E+01  0.3931E+02
     18.167  0.2146E+01  0.3937E+02
     18.196  0.2088E+01  0.3943E+02
     18.225  0.2222E+01  0.3950E+02
     18.253  0.2121E+01  0.3956E+02
     18.282  0.2285E+01  0.3962E+02
     18.310  0.2014E+01  0.3968E+02
     18.339  0.2264E+01  0.3974E+02
     18.368  0.2132E+01  0.3980E+02
     18.396  0.2096E+01  0.3986E+02
     18.425  0.2003E+01  0.3992E+02
     18.454  0.2230E+01  0.3999E+02
     18.482  0.1800E+01  0.4004E+02
     18.511  0.2266E+01  0.4010E+02
     18.539  0.2294E+01  0.4017E+02
     18.568  0.2348E+01  0.4024E+02
     18.597  0.1967E+01  0.4029E+02
     18.625  0.2032E+01  0.4035E+02
     18.654  0.2210E+01  0.4041E+02
     18.683  0.2086E+01  0.4047E+02
     18.711  0.2444E+01  0.4054E+02
     18.740  0.2932E+01  0.4063E+02
     18.769  0.2741E+01  0.4071E+02
     18.797  0.2688E+01  0.4078E+02
     18.826  0.2496E+01  0.4085E+02
     18.854  0.2931E+01  0.4094E+02
     18.883  0.2471E+01  0.4101E+02
     18.912  0.2620E+01  0.4108E+02
     18.940  0.2307E+01  0.4115E+02
     18.969  0.2869E+01  0.4123E+02
     18.998  0.2477E+01  0.4130E+02
     19.026  0.2849E+01  0.4138E+02
     19.055  0.2804E+01  0.4146E+02
     19.084  0.2719E+01  0.4154E+02
     19.112  0.2971E+01  0.4163E+02
     19.141  0.3042E+01  0.4171E+02
     19.169  0.2837E+01  0.4180E+02
     19.198  0.2314E+01  0.4186E+02
     19.227  0.2487E+01  0.4193E+02
     19.255  0.2081E+01  0.4199E+02
     19.284  0.2212E+01  0.4206E+02
     19.313  0.2223E+01  0.4212E+02
     19.341  0.2107E+01  0.4218E+02
     19.370  0.2125E+01  0.4224E+02
     19.399  0.2336E+01  0.4231E+02
     19.427  0.2501E+01  0.4238E+02
     19.456  0.2628E+01  0.4245E+02
     19.484  0.2712E+01  0.4253E+02
     19.513  0.2444E+01  0.4260E+02
     19.542  0.2969E+01  0.4269E+02
     19.570  0.3109E+01  0.4278E+02
     19.599  0.2690E+01  0.4285E+02
     19.628  0.2629E+01  0.4293E+02
     19.656  0.2896E+01  0.4301E+02
     19.685  0.3623E+01  0.4312E+02
     19.714  0.3354E+01  0.4321E+02
     19.742  0.3059E+01  0.4330E+02
     19.771  0.2275E+01  0.4336E+02
     19.799  0.3063E+01  0.4345E+02
     19.828  0.2863E+01  0.4353E+02
     19.857  0.2506E+01  0.4361E+02
     19.885  0.2721E+01  0.4368E+02
     19.914  0.2862E+01  0.4377E+02
     19.943  0.2591E+01  0.4384E+02
     19.971  0.2959E+01  0.4392E+02
     20.000  0.2586E+01  0.4400E+02
     20.029  0.3161E+01  0.4409E+02
     20.057  0.3227E+01  0.4418E+02
     20.086  0.3730E+01  0.4429E+02
     20.114  0.4018E+01  0.4440E+02
     20.143  0.3980E+01  0.4452E+02
     20.172  0.4833E+01  0.4466E+02
     20.200  0.3832E+01  0.4477E+02
     20.229  0.3200E+01  0.4486E+02
     20.258  0.2647E+01  0.4493E+02
     20.286  0.2360E+01  0.4500E+02
     20.315  0.2195E+01  0.4506E+02
     20.344  0.2789E+01  0.4514E+02
     20.372  0.2498E+01  0.4521E+02
     20.401  0.2165E+01  0.4528E+02
     20.429  0.1880E+01  0.4533E+02
     20.458  0.2187E+01  0.4539E+02
     20.487  0.2372E+01  0.4546E+02
     20.515  0.3050E+01  0.4555E+02
     20.544  0.2228E+01  0.4561E+02
     20.573  0.1994E+01  0.4567E+02
     20.601  0.2339E+01  0.4574E+02
     20.630  0.1964E+01  0.4579E+02
     20.659  0.2447E+01  0.4586E+02
     20.687  0.2154E+01  0.4592E+02
     20.716  0.2248E+01  0.4599E+02
     20.744  0.2142E+01  0.4605E+02
     20.773  0.1839E+01  0.4610E+02
     20.802  0.2331E+01  0.4617E+02
     20.830  0.1982E+01  0.4623E+02
     20.859  0.2157E+01  0.4629E+02
     20.888  0.2148E+01  0.4635E+02
     20.916  0.2100E+01  0.4641E+02
     20.945  0.2152E+01  0.4647E+02
     20.974  0.2036E+01  0.4653E+02
     21.002  0.2336E+01  0.4660E+02
     21.031  0.2478E+01  0.4667E+02
     21.059  0.2462E+01  0.4674E+02
     21.088  0.2091E+01  0.4680E+02
     21.117  0.2231E+01  0.4686E+02
     21.145  0.2920E+01  0.4695E+02
     21.174  0.2913E+01  0.4703E+02
     21.203  0.2809E+01  0.4711E+02
     21.231  0.2559E+01  0.4718E+02
     21.260  0.3883E+01  0.4729E+02
     21.289  0.3246E+01  0.4739E+02
     21.317  0.3369E+01  0.4748E+02
     21.346  0.3457E+01  0.4758E+02
     21.374  0.3359E+01  0.4768E+02
     21.403  0.3074E+01  0.4777E+02
     21.432  0.2912E+01  0.4785E+02
     21.460  0.3192E+01  0.4794E+02
     21.489  0.3093E+01  0.4803E+02
     21.518  0.3382E+01  0.4813E+02
     21.546  0.2729E+01  0.4820E+02
     21.575  0.3009E+01  0.4829E+02
     21.604  0.3034E+01  0.4838E+02
     21.632  0.3456E+01  0.4848E+02
     21.661  0.2944E+01  0.4856E+02
     21.689  0.3021E+01  0.4865E+02
     21.718  0.2636E+01  0.4872E+02
     21.747  0.3111E+01  0.4881E+02
     21.775  0.3574E+01  0.4891E+02
     21.804  0.3065E+01  0.4900E+02
     21.833  0.4564E+01  0.4913E+02
     21.861  0.3658E+01  0.4924E+02
     21.890  0.3361E+01  0.4933E+02
     21.918  0.3375E+01  0.4943E+02
     21.947  0.3109E+01  0.4952E+02
     21.976  0.3073E+01  0.4961E+02
     22.004  0.2502E+01  0.4968E+02
     22.033  0.2952E+01  0.4976E+02
     22.062  0.2808E+01  0.4984E+02
     22.090  0.2792E+01  0.4992E+02
     22.119  0.3078E+01  0.5001E+02
     22.148  0.2382E+01  0.5008E+02
     22.176  0.3375E+01  0.5018E+02
     22.205  0.3453E+01  0.5028E+02
     22.233  0.2935E+01  0.5036E+02
     22.262  0.3064E+01  0.5045E+02
     22.291  0.2227E+01  0.5051E+02
     22.319  0.2407E+01  0.5058E+02
     22.348  0.3002E+01  0.5067E+02
     22.377  0.2816E+01  0.5075E+02
     22.405  0.2436E+01  0.5082E+02
     22.434  0.2571E+01  0.5089E+02
     22.463  0.2679E+01  0.5097E+02
     22.491  0.2739E+01  0.5105E+02
     22.520  0.2607E+01  0.5112E+02
     22.548  0.2513E+01  0.5119E+02
     22.577  0.2331E+01  0.5126E+02
     22.606  0.2716E+01  0.5134E+02
     22.634  0.2630E+01  0.5141E+02
     22.663  0.2126E+01  0.5147E+02
     22.692  0.2200E+01  0.5154E+02
     22.720  0.2903E+01  0.5162E+02
     22.749  0.2360E+01  0.5169E+02
     22.778  0.2237E+01  0.5175E+02
     22.806  0.2485E+01  0.5182E+02
     22.835  0.2698E+01  0.5190E+02
     22.863  0.2792E+01  0.5198E+02
     22.892  0.2889E+01  0.5206E+02
     22.921  0.2808E+01  0.5214E+02
     22.949  0.2429E+01  0.5221E+02
     22.978  0.2876E+01  0.5229E+02
     23.007  0.2233E+01  0.5236E+02
     23.035  0.2743E+01  0.5244E+02
     23.064  0.2859E+01  0.5252E+02
     23.093  0.2701E+01  0.5260E+02
     23.121  0.2471E+01  0.5267E+02
     23.150  0.3138E+01  0.5276E+02
     23.178  0.3514E+01  0.5286E+02
     23.207  0.2694E+01  0.5293E+02
     23.236  0.2395E+01  0.5300E+02
     23.264  0.2703E+01  0.5308E+02
     23.293  0.2774E+01  0.5316E+02
     23.322  0.2617E+01  0.5323E+02
     23.350  0.2713E+01  0.5331E+02
     23.379  0.2569E+01  0.5339E+02
     23.408  0.2500E+01  0.5346E+02
     23.436  0.2934E+01  0.5354E+02
     23.465  0.3109E+01  0.5363E+02
     23.493  0.2745E+01  0.5371E+02
     23.522  0.2783E+01  0.5379E+02
     23.551  0.3069E+01  0.5388E+02
     23.579  0.3213E+01  0.5397E+02
     23.608  0.3123E+01  0.5406E+02
     23.637  0.3352E+01  0.5415E+02
     23.665  0.3126E+01  0.5424E+02
     23.694  0.2883E+01  0.5433E+02
     23.723  0.3128E+01  0.5442E+02
     23.751  0.2904E+01  0.5450E+02
     23.780  0.3752E+01  0.5461E+02
     23.808  0.3458E+01  0.5471E+02
     23.837  0.3669E+01  0.5481E+02
     23.866  0.3865E+01  0.5492E+02
     23.894  0.4011E+01  0.5504E+02
     23.923  0.3958E+01  0.5515E+02
     23.952  0.3326E+01  0.5524E+02
     23.980  0.3355E+01  0.5534E+02
     24.009  0.3367E+01  0.5544E+02
     24.038  0.3505E+01  0.5554E+02
     24.066  0.3218E+01  0.5563E+02
     24.095  0.3081E+01  0.5572E+02
     24.123  0.2684E+01  0.5579E+02
     24.152  0.2936E+01  0.5588E+02
     24.181  0.2380E+01  0.5595E+02
     24.209  0.3185E+01  0.5604E+02
     24.238  0.2878E+01  0.5612E+02
     24.267  0.2590E+01  0.5619E+02
     24.295  0.2149E+01  0.5626E+02
     24.324  0.3145E+01  0.5635E+02
     24.353  0.3175E+01  0.5644E+02
     24.381  0.2909E+01  0.5652E+02
     24.410  0.2921E+01  0.5660E+02
     24.438  0.3055E+01  0.5669E+02
     24.467  0.2926E+01  0.5678E+02
     24.496  0.2767E+01  0.5685E+02
     24.524  0.3008E+01  0.5694E+02
     24.553  0.3138E+01  0.5703E+02
     24.582  0.3239E+01  0.5712E+02
     24.610  0.3207E+01  0.5721E+02
     24.639  0.2426E+01  0.5728E+02
     24.668  0.2951E+01  0.5737E+02
     24.696  0.2938E+01  0.5745E+02
     24.725  0.2615E+01  0.5753E+02
     24.753  0.2703E+01  0.5761E+02
     24.782  0.2629E+01  0.5768E+02
     24.811  0.2494E+01  0.5775E+02
     24.839  0.2140E+01  0.5781E+02
     24.868  0.2375E+01  0.5788E+02
     24.897  0.2914E+01  0.5796E+02
     24.925  0.2990E+01  0.5805E+02
     24.954  0.3117E+01  0.5814E+02
     24.983  0.3390E+01  0.5824E+02
     25.011  0.2702E+01  0.5831E+02
     25.040  0.2860E+01  0.5840E+02
     25.068  0.2714E+01  0.5847E+02
     25.097  0.2804E+01  0.5855E+02
     25.126  0.2937E+01  0.5864E+02
     25.154  0.2376E+01  0.5871E+02
     25.183  0.3203E+01  0.5880E+02
     25.212  0.3183E+01  0.5889E+02
     25.240  0.2852E+01  0.5897E+02
     25.269  0.2965E+01  0.5906E+02
     25.297  0.2968E+01  0.5914E+02
     25.326  0.2857E+01  0.5922E+02
     25.355  0.2917E+01  0.5931E+02
     25.383  0.2655E+01  0.5938E+02
     25.412  0.2845E+01  0.5946E+02
     25.441  0.3019E+01  0.5955E+02
     25.469  0.2783E+01  0.5963E+02
     25.498  0.2894E+01  0.5971E+02
     25.527  0.3457E+01  0.5981E+02
     25.555  0.2864E+01  0.5989E+02
     25.584  0.2673E+01  0.5997E+02
     25.612  0.2744E+01  0.6005E+02
     25.641  0.2530E+01  0.6012E+02
     25.670  0.2568E+01  0.6019E+02
     25.698  0.3296E+01  0.6029E+02
     25.727  0.2733E+01  0.6037E+02
     25.756  0.2180E+01  0.6043E+02
     25.784  0.2550E+01  0.6050E+02
     25.813  0.2835E+01  0.6058E+02
     25.842  0.2823E+01  0.6066E+02
     25.870  0.2384E+01  0.6073E+02
     25.899  0.2917E+01  0.6082E+02
     25.927  0.2276E+01  0.6088E+02
     25.956  0.2918E+01  0.6097E+02
     25.985  0.2681E+01  0.6104E+02
     26.013  0.2923E+01  0.6113E+02
     26.042  0.3038E+01  0.6121E+02
     26.071  0.1810E+01  0.6126E+02
     26.099  0.2675E+01  0.6134E+02
     26.128  0.2488E+01  0.6141E+02
     26.157  0.2255E+01  0.6148E+02
     26.185  0.1869E+01  0.6153E+02
     26.214  0.2232E+01  0.6159E+02
     26.242  0.2234E+01  0.6166E+02
     26.271  0.2668E+01  0.6173E+02
     26.300  0.1892E+01  0.6179E+02
     26.328  0.2521E+01  0.6186E+02
     26.357  0.1970E+01  0.6192E+02
     26.386  0.1776E+01  0.6197E+02
     26.414  0.1778E+01  0.6202E+02
     26.443  0.2008E+01  0.6208E+02
     26.472  0.1769E+01  0.6213E+02
     26.500  0.2519E+01  0.6220E+02
     26.529  0.2460E+01  0.6227E+02
     26.557  0.1961E+01  0.6233E+02
     26.586  0.2297E+01  0.6239E+02
     26.615  0.2221E+01  0.6246E+02
     26.643  0.2285E+01  0.6252E+02
     26.672  0.2479E+01  0.6259E+02
     26.701  0.2561E+01  0.6267E+02
     26.729  0.2470E+01  0.6274E+02
     26.758  0.3184E+01  0.6283E+02
     26.787  0.2853E+01  0.6291E+02
     26.815  0.3204E+01  0.6300E+02
     26.844  0.3065E+01  0.6309E+02
     26.872  0.3772E+01  0.6320E+02
     26.901  0.3581E+01  0.6330E+02
     26.930  0.3611E+01  0.6340E+02
     26.958  0.4323E+01  0.6353E+02
     26.987  0.3066E+01  0.6361E+02
     27.016  0.2836E+01  0.6370E+02
     27.044  0.3447E+01  0.6379E+02
     27.073  0.3270E+01  0.6389E+02
     27.102  0.3865E+01  0.6400E+02
     27.130  0.3558E+01  0.6410E+02
     27.159  0.3442E+01  0.6420E+02
     27.187  0.3091E+01  0.6429E+02
     27.216  0.2723E+01  0.6437E+02
     27.245  0.2556E+01  0.6444E+02
     27.273  0.2747E+01  0.6452E+02
     27.302  0.2555E+01  0.6459E+02
     27.331  0.2668E+01  0.6467E+02
     27.359  0.3335E+01  0.6476E+02
     27.388  0.3426E+01  0.6486E+02
     27.417  0.3197E+01  0.6495E+02
     27.445  0.2936E+01  0.6504E+02
     27.474  0.3029E+01  0.6512E+02
     27.502  0.2828E+01  0.6520E+02
     27.531  0.2669E+01  0.6528E+02
     27.560  0.2264E+01  0.6534E+02
     27.588  0.3228E+01  0.6544E+02
     27.617  0.3064E+01  0.6552E+02
     27.646  0.2511E+01  0.6560E+02
     27.674  0.2765E+01  0.6568E+02
     27.703  0.2302E+01  0.6574E+02
     27.732  0.2506E+01  0.6581E+02
     27.760  0.1915E+01  0.6587E+02
     27.789  0.2712E+01  0.6595E+02
     27.817  0.2394E+01  0.6601E+02
     27.846  0.2076E+01  0.6607E+02
     27.875  0.2642E+01  0.6615E+02
     27.903  0.2691E+01  0.6623E+02
     27.932  0.2353E+01  0.6629E+02
     27.961  0.2530E+01  0.6637E+02
     27.989  0.2680E+01  0.6644E+02
     28.018  0.2948E+01  0.6653E+02
     28.047  0.2592E+01  0.6660E+02
     28.075  0.2411E+01  0.6667E+02
     28.104  0.2750E+01  0.6675E+02
     28.132  0.2932E+01  0.6683E+02
     28.161  0.2968E+01  0.6692E+02
     28.190  0.2446E+01  0.6699E+02
     28.218  0.2475E+01  0.6706E+02
     28.247  0.2779E+01  0.6714E+02
     28.276  0.2390E+01  0.6721E+02
     28.304  0.2698E+01  0.6728E+02
     28.333  0.2282E+01  0.6735E+02
     28.362  0.2774E+01  0.6743E+02
     28.390  0.2724E+01  0.6751E+02
     28.419  0.2403E+01  0.6758E+02
     28.447  0.2427E+01  0.6765E+02
     28.476  0.3051E+01  0.6773E+02
     28.505  0.3148E+01  0.6782E+02
     28.533  0.2862E+01  0.6791E+02
     28.562  0.2472E+01  0.6798E+02
     28.591  0.2289E+01  0.6804E+02
     28.619  0.2799E+01  0.6812E+02
     28.648  0.2843E+01  0.6820E+02
     28.677  0.2564E+01  0.6828E+02
     28.705  0.2635E+01  0.6835E+02
     28.734  0.2496E+01  0.6842E+02
     28.762  0.2410E+01  0.6849E+02
     28.791  0.2637E+01  0.6857E+02
     28.820  0.2584E+01  0.6864E+02
     28.848  0.2903E+01  0.6873E+02
     28.877  0.3430E+01  0.6882E+02
     28.906  0.2795E+01  0.6890E+02
     28.934  0.3378E+01  0.6900E+02
     28.963  0.2679E+01  0.6908E+02
     28.991  0.3261E+01  0.6917E+02
     29.020  0.3026E+01  0.6926E+02
     29.049  0.3187E+01  0.6935E+02
     29.077  0.3327E+01  0.6944E+02
     29.106  0.3225E+01  0.6954E+02
     29.135  0.3368E+01  0.6963E+02
     29.163  0.2779E+01  0.6971E+02
     29.192  0.2675E+01  0.6979E+02
     29.221  0.2988E+01  0.6987E+02
     29.249  0.2906E+01  0.6996E+02
     29.278  0.2668E+01  0.7003E+02
     29.306  0.3096E+01  0.7012E+02
     29.335  0.2714E+01  0.7020E+02
     29.364  0.2877E+01  0.7028E+02
     29.392  0.2745E+01  0.7036E+02
     29.421  0.3610E+01  0.7046E+02
     29.450  0.3353E+01  0.7056E+02
     29.478  0.2800E+01  0.7064E+02
     29.507  0.2886E+01  0.7072E+02
     29.536  0.2630E+01  0.7080E+02
     29.564  0.2725E+01  0.7088E+02
     29.593  0.2722E+01  0.7095E+02
     29.621  0.2847E+01  0.7104E+02
     29.650  0.2551E+01  0.7111E+02
     29.679  0.2821E+01  0.7119E+02
     29.707  0.3065E+01  0.7128E+02
     29.736  0.2509E+01  0.7135E+02
     29.765  0.2518E+01  0.7142E+02
     29.793  0.2534E+01  0.7149E+02
     29.822  0.2562E+01  0.7157E+02
     29.851  0.2710E+01  0.7165E+02
     29.879  0.2219E+01  0.7171E+02
     29.908  0.2835E+01  0.7179E+02
     29.936  0.2495E+01  0.7186E+02
     29.965  0.3237E+01  0.7195E+02
     29.994  0.2628E+01  0.7203E+02
     30.022  0.2336E+01  0.7210E+02
     30.051  0.2967E+01  0.7218E+02
     30.080  0.3368E+01  0.7228E+02
     30.108  0.2349E+01  0.7235E+02
     30.137  0.2877E+01  0.7243E+02
     30.166  0.3482E+01  0.7253E+02
     30.194  0.2822E+01  0.7261E+02
     30.223  0.2439E+01  0.7268E+02
     30.251  0.2676E+01  0.7275E+02
     30.280  0.2774E+01  0.7283E+02
     30.309  0.3078E+01  0.7292E+02
     30.337  0.3188E+01  0.7301E+02
     30.366  0.2844E+01  0.7309E+02
     30.395  0.3230E+01  0.7319E+02
     30.423  0.2805E+01  0.7327E+02
     30.452  0.2677E+01  0.7334E+02
     30.481  0.2918E+01  0.7343E+02
     30.509  0.3173E+01  0.7352E+02
     30.538  0.3440E+01  0.7362E+02
     30.566  0.3134E+01  0.7371E+02
     30.595  0.2652E+01  0.7378E+02
     30.624  0.3088E+01  0.7387E+02
     30.652  0.3266E+01  0.7396E+02
     30.681  0.3424E+01  0.7406E+02
     30.710  0.3562E+01  0.7416E+02
     30.738  0.2965E+01  0.7425E+02
     30.767  0.3617E+01  0.7435E+02
     30.796  0.3073E+01  0.7444E+02
     30.824  0.3166E+01  0.7453E+02
     30.853  0.3219E+01  0.7462E+02
     30.881  0.3284E+01  0.7472E+02
     30.910  0.3220E+01  0.7481E+02
     30.939  0.3133E+01  0.7490E+02
     30.967  0.3808E+01  0.7501E+02
     30.996  0.3309E+01  0.7510E+02
     31.025  0.3189E+01  0.7520E+02
     31.053  0.2890E+01  0.7528E+02
     31.082  0.2953E+01  0.7536E+02
     31.111  0.3452E+01  0.7546E+02
     31.139  0.2747E+01  0.7554E+02
     31.168  0.2640E+01  0.7562E+02
     31.196  0.2701E+01  0.7569E+02
     31.225  0.2600E+01  0.7577E+02
     31.254  0.2990E+01  0.7585E+02
     31.282  0.2844E+01  0.7593E+02
     31.311  0.2954E+01  0.7602E+02
     31.340  0.2620E+01  0.7609E+02
     31.368  0.2821E+01  0.7617E+02
     31.397  0.2712E+01  0.7625E+02
     31.426  0.2714E+01  0.7633E+02
     31.454  0.3066E+01  0.7642E+02
     31.483  0.2931E+01  0.7650E+02
     31.511  0.2877E+01  0.7658E+02
     31.540  0.2522E+01  0.7666E+02
     31.569  0.2546E+01  0.7673E+02
     31.597  0.2769E+01  0.7681E+02
     31.626  0.2443E+01  0.7688E+02
     31.655  0.2605E+01  0.7695E+02
     31.683  0.2407E+01  0.7702E+02
     31.712  0.2825E+01  0.7710E+02
     31.741  0.2916E+01  0.7719E+02
     31.769  0.2997E+01  0.7727E+02
     31.798  0.2621E+01  0.7735E+02
     31.826  0.2455E+01  0.7742E+02
     31.855  0.3066E+01  0.7751E+02
     31.884  0.2831E+01  0.7759E+02
     31.912  0.2758E+01  0.7767E+02
     31.941  0.2751E+01  0.7774E+02
     31.970  0.2817E+01  0.7783E+02
     31.998  0.3141E+01  0.7792E+02
     32.027  0.3647E+01  0.7802E+02
     32.056  0.2901E+01  0.7810E+02
     32.084  0.2902E+01  0.7819E+02
     32.113  0.3890E+01  0.7830E+02
     32.141  0.3868E+01  0.7841E+02
     32.170  0.3336E+01  0.7850E+02
     32.199  0.4077E+01  0.7862E+02
     32.227  0.4540E+01  0.7875E+02
     32.256  0.3004E+01  0.7884E+02
     32.285  0.4307E+01  0.7896E+02
     32.313  0.4478E+01  0.7909E+02
     32.342  0.4740E+01  0.7922E+02
     32.370  0.3902E+01  0.7934E+02
     32.399  0.3775E+01  0.7944E+02
     32.428  0.3725E+01  0.7955E+02
     32.456  0.3580E+01  0.7965E+02
     32.485  0.4102E+01  0.7977E+02
     32.514  0.4384E+01  0.7990E+02
     32.542  0.4006E+01  0.8001E+02
     32.571  0.4006E+01  0.8012E+02
     32.600  0.3655E+01  0.8023E+02
     32.628  0.3569E+01  0.8033E+02
     32.657  0.3666E+01  0.8044E+02
     32.685  0.2778E+01  0.8052E+02
     32.714  0.3696E+01  0.8062E+02
     32.743  0.4715E+01  0.8076E+02
     32.771  0.3415E+01  0.8085E+02
     32.800  0.4067E+01  0.8097E+02
     32.829  0.3967E+01  0.8108E+02
     32.857  0.3901E+01  0.8120E+02
     32.886  0.2912E+01  0.8128E+02
     32.915  0.2932E+01  0.8136E+02
     32.943  0.2929E+01  0.8145E+02
     32.972  0.3009E+01  0.8153E+02
     33.000  0.2589E+01  0.8161E+02
     33.029  0.2484E+01  0.8168E+02
     33.058  0.2273E+01  0.8174E+02
     33.086  0.2600E+01  0.8182E+02
     33.115  0.2456E+01  0.8189E+02
     33.144  0.2314E+01  0.8196E+02
     33.172  0.2448E+01  0.8203E+02
     33.201  0.2580E+01  0.8210E+02
     33.230  0.2301E+01  0.8217E+02
     33.258  0.2565E+01  0.8224E+02
     33.287  0.2201E+01  0.8230E+02
     33.315  0.2148E+01  0.8236E+02
     33.344  0.2323E+01  0.8243E+02
     33.373  0.2475E+01  0.8250E+02
     33.401  0.3192E+01  0.8259E+02
     33.430  0.2716E+01  0.8267E+02
     33.459  0.3079E+01  0.8276E+02
     33.487  0.2938E+01  0.8284E+02
     33.516  0.2659E+01  0.8292E+02
     33.545  0.2893E+01  0.8300E+02
     33.573  0.2762E+01  0.8308E+02
     33.602  0.2755E+01  0.8316E+02
     33.630  0.3521E+01  0.8326E+02
     33.659  0.3490E+01  0.8336E+02
     33.688  0.3315E+01  0.8345E+02
     33.716  0.2348E+01  0.8352E+02
     33.745  0.2477E+01  0.8359E+02
     33.774  0.2423E+01  0.8366E+02
     33.802  0.2273E+01  0.8373E+02
     33.831  0.2578E+01  0.8380E+02
     33.860  0.2758E+01  0.8388E+02
     33.888  0.2741E+01  0.8396E+02
     33.917  0.2570E+01  0.8403E+02
     33.945  0.2530E+01  0.8410E+02
     33.974  0.2628E+01  0.8418E+02
     34.003  0.2543E+01  0.8425E+02
     34.031  0.3011E+01  0.8434E+02
     34.060  0.3122E+01  0.8443E+02
     34.089  0.2449E+01  0.8450E+02
     34.117  0.2963E+01  0.8458E+02
     34.146  0.2415E+01  0.8465E+02
     34.175  0.3004E+01  0.8474E+02
     34.203  0.2551E+01  0.8481E+02
     34.232  0.2677E+01  0.8489E+02
     34.260  0.2690E+01  0.8497E+02
     34.289  0.2756E+01  0.8504E+02
     34.318  0.3732E+01  0.8515E+02
     34.346  0.2716E+01  0.8523E+02
     34.375  0.2623E+01  0.8530E+02
     34.404  0.2762E+01  0.8538E+02
     34.432  0.2413E+01  0.8545E+02
     34.461  0.2911E+01  0.8554E+02
     34.490  0.2638E+01  0.8561E+02
     34.518  0.2527E+01  0.8568E+02
     34.547  0.2552E+01  0.8576E+02
     34.575  0.3451E+01  0.8586E+02
     34.604  0.3194E+01  0.8595E+02
     34.633  0.3269E+01  0.8604E+02
     34.661  0.3077E+01  0.8613E+02
     34.690  0.3623E+01  0.8623E+02
     34.719  0.3371E+01  0.8633E+02
     34.747  0.3088E+01  0.8642E+02
     34.776  0.3665E+01  0.8652E+02
     34.805  0.3467E+01  0.8662E+02
     34.833  0.3767E+01  0.8673E+02
     34.862  0.3463E+01  0.8683E+02
     34.890  0.3406E+01  0.8693E+02
     34.919  0.3743E+01  0.8703E+02
     34.948  0.3915E+01  0.8715E+02
     34.976  0.3531E+01  0.8725E+02
     35.005  0.3162E+01  0.8734E+02
     35.034  0.2781E+01  0.8742E+02
     35.062  0.3695E+01  0.8752E+02
     35.091  0.3845E+01  0.8763E+02
     35.120  0.3599E+01  0.8774E+02
     35.148  0.3234E+01  0.8783E+02
     35.177  0.3535E+01  0.8793E+02
     35.205  0.3421E+01  0.8803E+02
     35.234  0.3169E+01  0.8812E+02
     35.263  0.3742E+01  0.8823E+02
     35.291  0.3486E+01  0.8833E+02
     35.320  0.3440E+01  0.8842E+02
     35.349  0.3319E+01  0.8852E+02
     35.377  0.3485E+01  0.8862E+02
     35.406  0.3160E+01  0.8871E+02
     35.435  0.3572E+01  0.8881E+02
     35.463  0.3335E+01  0.8891E+02
     35.492  0.3611E+01  0.8901E+02
     35.520  0.3472E+01  0.8911E+02
     35.549  0.3949E+01  0.8922E+02
     35.578  0.3705E+01  0.8933E+02
     35.606  0.3674E+01  0.8943E+02
     35.635  0.2802E+01  0.8951E+02
     35.664  0.3426E+01  0.8961E+02
     35.692  0.3470E+01  0.8971E+02
     35.721  0.3877E+01  0.8982E+02
     35.749  0.3434E+01  0.8992E+02
     35.778  0.3479E+01  0.9002E+02
     35.807  0.3460E+01  0.9012E+02
     35.835  0.3988E+01  0.9023E+02
     35.864  0.3628E+01  0.9034E+02
     35.893  0.3174E+01  0.9043E+02
     35.921  0.3630E+01  0.9053E+02
     35.950  0.3659E+01  0.9064E+02
     35.979  0.4299E+01  0.9076E+02
     36.007  0.4047E+01  0.9088E+02
     36.036  0.3251E+01  0.9097E+02
     36.064  0.3425E+01  0.9107E+02
     36.093  0.3863E+01  0.9118E+02
     36.122  0.3223E+01  0.9127E+02
     36.150  0.3449E+01  0.9137E+02
     36.179  0.3581E+01  0.9147E+02
     36.208  0.3545E+01  0.9157E+02
     36.236  0.3736E+01  0.9168E+02
     36.265  0.4026E+01  0.9180E+02
     36.294  0.3464E+01  0.9189E+02
     36.322  0.3634E+01  0.9200E+02
     36.351  0.3041E+01  0.9209E+02
     36.379  0.2709E+01  0.9216E+02
     36.408  0.3548E+01  0.9227E+02
     36.437  0.3706E+01  0.9237E+02
     36.465  0.3720E+01  0.9248E+02
     36.494  0.2761E+01  0.9256E+02
     36.523  0.2563E+01  0.9263E+02
     36.551  0.3100E+01  0.9272E+02
     36.580  0.3191E+01  0.9281E+02
     36.609  0.3405E+01  0.9291E+02
     36.637  0.3450E+01  0.9301E+02
     36.666  0.2605E+01  0.9308E+02
     36.694  0.2576E+01  0.9316E+02
     36.723  0.2378E+01  0.9322E+02
     36.752  0.2783E+01  0.9330E+02
     36.780  0.3046E+01  0.9339E+02
     36.809  0.3365E+01  0.9349E+02
     36.838  0.3591E+01  0.9359E+02
     36.866  0.2423E+01  0.9366E+02
     36.895  0.2581E+01  0.9373E+02
     36.924  0.2810E+01  0.9381E+02
     36.952  0.3538E+01  0.9391E+02
     36.981  0.3302E+01  0.9401E+02
     37.009  0.3090E+01  0.9410E+02
     37.038  0.2754E+01  0.9418E+02
     37.067  0.2499E+01  0.9425E+02
     37.095  0.3228E+01  0.9434E+02
     37.124  0.3577E+01  0.9444E+02
     37.153  0.3599E+01  0.9455E+02
     37.181  0.3006E+01  0.9463E+02
     37.210  0.2934E+01  0.9472E+02
     37.239  0.2884E+01  0.9480E+02
     37.267  0.3586E+01  0.9490E+02
     37.296  0.3203E+01  0.9499E+02
     37.324  0.3124E+01  0.9508E+02
     37.353  0.2931E+01  0.9517E+02
     37.382  0.3603E+01  0.9527E+02
     37.410  0.3468E+01  0.9537E+02
     37.439  0.3911E+01  0.9548E+02
     37.468  0.3756E+01  0.9559E+02
     37.496  0.3597E+01  0.9569E+02
     37.525  0.3511E+01  0.9579E+02
     37.554  0.3958E+01  0.9591E+02
     37.582  0.3085E+01  0.9599E+02
     37.611  0.3246E+01  0.9609E+02
     37.639  0.2788E+01  0.9617E+02
     37.668  0.3546E+01  0.9627E+02
     37.697  0.3629E+01  0.9637E+02
     37.725  0.3400E+01  0.9647E+02
     37.754  0.2306E+01  0.9654E+02
     37.783  0.2987E+01  0.9662E+02
     37.811  0.3019E+01  0.9671E+02
     37.840  0.3254E+01  0.9680E+02
     37.869  0.3201E+01  0.9689E+02
     37.897  0.2744E+01  0.9697E+02
     37.926  0.2987E+01  0.9706E+02
     37.954  0.2953E+01  0.9714E+02
     37.983  0.3650E+01  0.9725E+02
     38.012  0.3583E+01  0.9735E+02
     38.040  0.2932E+01  0.9743E+02
     38.069  0.3182E+01  0.9752E+02
     38.098  0.3552E+01  0.9762E+02
     38.126  0.3424E+01  0.9772E+02
     38.155  0.3189E+01  0.9781E+02
     38.184  0.3238E+01  0.9791E+02
     38.212  0.2514E+01  0.9798E+02
     38.241  0.3559E+01  0.9808E+02
     38.269  0.3790E+01  0.9819E+02
     38.298  0.3612E+01  0.9829E+02
     38.327  0.2893E+01  0.9838E+02
     38.355  0.3465E+01  0.9847E+02
     38.384  0.3386E+01  0.9857E+02
     38.413  0.3372E+01  0.9867E+02
     38.441  0.3088E+01  0.9876E+02
     38.470  0.2722E+01  0.9883E+02
     38.499  0.3326E+01  0.9893E+02
     38.527  0.2823E+01  0.9901E+02
     38.556  0.3070E+01  0.9910E+02
     38.584  0.3246E+01  0.9919E+02
     38.613  0.3308E+01  0.9929E+02
     38.642  0.2907E+01  0.9937E+02
     38.670  0.2785E+01  0.9945E+02
     38.699  0.2824E+01  0.9953E+02
     38.728  0.3264E+01  0.9962E+02
     38.756  0.2959E+01  0.9971E+02
     38.785  0.3452E+01  0.9981E+02
     38.814  0.3014E+01  0.9989E+02
     38.842  0.2830E+01  0.9997E+02
     38.871  0.3307E+01  0.1001E+03
     38.899  0.3100E+01  0.1002E+03
     38.928  0.4005E+01  0.1003E+03
     38.957  0.3272E+01  0.1004E+03
     38.985  0.3163E+01  0.1005E+03
     39.014  0.3521E+01  0.1006E+03
     39.043  0.3525E+01  0.1007E+03
     39.071  0.2761E+01  0.1007E+03
     39.100  0.2751E+01  0.1008E+03
     39.128  0.3229E+01  0.1009E+03
     39.157  0.3720E+01  0.1010E+03
     39.186  0.3249E+01  0.1011E+03
     39.214  0.3127E+01  0.1012E+03
     39.243  0.3332E+01  0.1013E+03
     39.272  0.3409E+01  0.1014E+03
     39.300  0.3827E+01  0.1015E+03
     39.329  0.3413E+01  0.1016E+03
     39.358  0.3740E+01  0.1017E+03
     39.386  0.3755E+01  0.1018E+03
     39.415  0.4123E+01  0.1019E+03
     39.443  0.3919E+01  0.1020E+03
     39.472  0.3353E+01  0.1021E+03
     39.501  0.3157E+01  0.1022E+03
     39.529  0.3881E+01  0.1023E+03
     39.558  0.4060E+01  0.1025E+03
     39.587  0.4102E+01  0.1026E+03
     39.615  0.3719E+01  0.1027E+03
     39.644  0.4408E+01  0.1028E+03
     39.673  0.3316E+01  0.1029E+03
     39.701  0.3600E+01  0.1030E+03
     39.730  0.3263E+01  0.1031E+03
     39.758  0.3736E+01  0.1032E+03
     39.787  0.3609E+01  0.1033E+03
     39.816  0.3644E+01  0.1034E+03
     39.844  0.3516E+01  0.1035E+03
     39.873  0.3431E+01  0.1036E+03
     39.902  0.3174E+01  0.1037E+03
     39.930  0.3481E+01  0.1038E+03
     39.959  0.4511E+01  0.1039E+03
     39.988  0.3762E+01  0.1040E+03
     40.016  0.4208E+01  0.1042E+03
     40.045  0.3326E+01  0.1043E+03
     40.073  0.3216E+01  0.1043E+03
     40.102  0.3683E+01  0.1045E+03
     40.131  0.3799E+01  0.1046E+03
     40.159  0.3658E+01  0.1047E+03
     40.188  0.3508E+01  0.1048E+03
     40.217  0.3657E+01  0.1049E+03
     40.245  0.3649E+01  0.1050E+03
     40.274  0.3854E+01  0.1051E+03
     40.303  0.3463E+01  0.1052E+03
     40.331  0.3796E+01  0.1053E+03
     40.360  0.3706E+01  0.1054E+03
     40.388  0.4144E+01  0.1055E+03
     40.417  0.4236E+01  0.1056E+03
     40.446  0.4553E+01  0.1058E+03
     40.474  0.3973E+01  0.1059E+03
     40.503  0.4587E+01  0.1060E+03
     40.532  0.4098E+01  0.1061E+03
     40.560  0.4222E+01  0.1063E+03
     40.589  0.3466E+01  0.1064E+03
     40.618  0.3758E+01  0.1065E+03
     40.646  0.4093E+01  0.1066E+03
     40.675  0.4095E+01  0.1067E+03
     40.703  0.5856E+01  0.1069E+03
     40.732  0.5029E+01  0.1070E+03
     40.761  0.4391E+01  0.1071E+03
     40.789  0.3859E+01  0.1072E+03
     40.818  0.4221E+01  0.1074E+03
     40.847  0.3462E+01  0.1075E+03
     40.875  0.3482E+01  0.1076E+03
     40.904  0.4122E+01  0.1077E+03
     40.933  0.3903E+01  0.1078E+03
     40.961  0.3481E+01  0.1079E+03
     40.990  0.3893E+01  0.1080E+03
     41.018  0.3709E+01  0.1081E+03
     41.047  0.3261E+01  0.1082E+03
     41.076  0.3666E+01  0.1083E+03
     41.104  0.4211E+01  0.1084E+03
     41.133  0.3891E+01  0.1085E+03
     41.162  0.4070E+01  0.1087E+03
     41.190  0.3914E+01  0.1088E+03
     41.219  0.3711E+01  0.1089E+03
     41.248  0.4625E+01  0.1090E+03
     41.276  0.4184E+01  0.1091E+03
     41.305  0.3899E+01  0.1092E+03
     41.333  0.4468E+01  0.1094E+03
     41.362  0.4509E+01  0.1095E+03
     41.391  0.4406E+01  0.1096E+03
     41.419  0.4945E+01  0.1098E+03
     41.448  0.3895E+01  0.1099E+03
     41.477  0.4550E+01  0.1100E+03
     41.505  0.5104E+01  0.1102E+03
     41.534  0.4066E+01  0.1103E+03
     41.563  0.3755E+01  0.1104E+03
     41.591  0.3771E+01  0.1105E+03
     41.620  0.3719E+01  0.1106E+03
     41.648  0.3914E+01  0.1107E+03
     41.677  0.4147E+01  0.1108E+03
     41.706  0.3871E+01  0.1109E+03
     41.734  0.4052E+01  0.1110E+03
     41.763  0.3169E+01  0.1111E+03
     41.792  0.3299E+01  0.1112E+03
     41.820  0.3263E+01  0.1113E+03
     41.849  0.3396E+01  0.1114E+03
     41.878  0.2842E+01  0.1115E+03
     41.906  0.3160E+01  0.1116E+03
     41.935  0.3092E+01  0.1117E+03
     41.963  0.3430E+01  0.1118E+03
     41.992  0.3033E+01  0.1119E+03
     42.021  0.3076E+01  0.1120E+03
     42.049  0.4056E+01  0.1121E+03
     42.078  0.3441E+01  0.1122E+03
     42.107  0.3158E+01  0.1123E+03
     42.135  0.3631E+01  0.1124E+03
     42.164  0.3766E+01  0.1125E+03
     42.193  0.3716E+01  0.1126E+03
     42.221  0.3025E+01  0.1127E+03
     42.250  0.3860E+01  0.1128E+03
     42.278  0.4023E+01  0.1129E+03
     42.307  0.3709E+01  0.1130E+03
     42.336  0.3294E+01  0.1131E+03
     42.364  0.3539E+01  0.1132E+03
     42.393  0.3877E+01  0.1133E+03
     42.422  0.4496E+01  0.1134E+03
     42.450  0.4629E+01  0.1136E+03
     42.479  0.4091E+01  0.1137E+03
     42.507  0.3150E+01  0.1138E+03
     42.536  0.3029E+01  0.1139E+03
     42.565  0.2898E+01  0.1139E+03
     42.593  0.3599E+01  0.1140E+03
     42.622  0.4184E+01  0.1142E+03
     42.651  0.3350E+01  0.1143E+03
     42.679  0.4236E+01  0.1144E+03
     42.708  0.3578E+01  0.1145E+03
     42.737  0.3027E+01  0.1146E+03
     42.765  0.3686E+01  0.1147E+03
     42.794  0.3079E+01  0.1148E+03
     42.822  0.3167E+01  0.1149E+03
     42.851  0.3907E+01  0.1150E+03
     42.880  0.3926E+01  0.1151E+03
     42.908  0.3603E+01  0.1152E+03
     42.937  0.3524E+01  0.1153E+03
     42.966  0.3275E+01  0.1154E+03
     42.994  0.3240E+01  0.1155E+03
     43.023  0.3666E+01  0.1156E+03
     43.052  0.3639E+01  0.1157E+03
     43.080  0.3572E+01  0.1158E+03
     43.109  0.3974E+01  0.1159E+03
     43.137  0.4255E+01  0.1160E+03
     43.166  0.3629E+01  0.1161E+03
     43.195  0.3941E+01  0.1162E+03
     43.223  0.3757E+01  0.1163E+03
     43.252  0.3965E+01  0.1165E+03
     43.281  0.3796E+01  0.1166E+03
     43.309  0.3247E+01  0.1167E+03
     43.338  0.4280E+01  0.1168E+03
     43.367  0.4257E+01  0.1169E+03
     43.395  0.3814E+01  0.1170E+03
     43.424  0.3531E+01  0.1171E+03
     43.452  0.4010E+01  0.1172E+03
     43.481  0.3053E+01  0.1173E+03
     43.510  0.4006E+01  0.1174E+03
     43.538  0.4266E+01  0.1176E+03
     43.567  0.4193E+01  0.1177E+03
     43.596  0.4308E+01  0.1178E+03
     43.624  0.4045E+01  0.1179E+03
     43.653  0.4730E+01  0.1180E+03
     43.682  0.4027E+01  0.1182E+03
     43.710  0.2838E+01  0.1182E+03
     43.739  0.3930E+01  0.1184E+03
     43.767  0.3844E+01  0.1185E+03
     43.796  0.4144E+01  0.1186E+03
     43.825  0.4344E+01  0.1187E+03
     43.853  0.3690E+01  0.1188E+03
     43.882  0.3794E+01  0.1189E+03
     43.911  0.3958E+01  0.1190E+03
     43.939  0.3553E+01  0.1191E+03
     43.968  0.4485E+01  0.1193E+03
     43.997  0.3646E+01  0.1194E+03
     44.025  0.3606E+01  0.1195E+03
     44.054  0.3400E+01  0.1196E+03
     44.082  0.4722E+01  0.1197E+03
     44.111  0.3879E+01  0.1198E+03
     44.140  0.3814E+01  0.1199E+03
     44.168  0.4220E+01  0.1201E+03
     44.197  0.3733E+01  0.1202E+03
     44.226  0.4875E+01  0.1203E+03
     44.254  0.3968E+01  0.1204E+03
     44.283  0.3945E+01  0.1205E+03
     44.312  0.4092E+01  0.1206E+03
     44.340  0.4076E+01  0.1208E+03
     44.369  0.3777E+01  0.1209E+03
     44.397  0.3182E+01  0.1210E+03
     44.426  0.3922E+01  0.1211E+03
     44.455  0.3472E+01  0.1212E+03
     44.483  0.4372E+01  0.1213E+03
     44.512  0.4199E+01  0.1214E+03
     44.541  0.4028E+01  0.1215E+03
     44.569  0.4455E+01  0.1217E+03
     44.598  0.3541E+01  0.1218E+03
     44.627  0.3917E+01  0.1219E+03
     44.655  0.4374E+01  0.1220E+03
     44.684  0.3867E+01  0.1221E+03
     44.712  0.4101E+01  0.1222E+03
     44.741  0.3130E+01  0.1223E+03
     44.770  0.3625E+01  0.1224E+03
     44.798  0.3813E+01  0.1225E+03
     44.827  0.3288E+01  0.1226E+03
     44.856  0.2914E+01  0.1227E+03
     44.884  0.2697E+01  0.1228E+03
     44.913  0.2970E+01  0.1229E+03
     44.942  0.3613E+01  0.1230E+03
     44.970  0.3635E+01  0.1231E+03
     44.999  0.3519E+01  0.1232E+03
     45.027  0.3253E+01  0.1233E+03
     45.056  0.4134E+01  0.1234E+03
     45.085  0.3453E+01  0.1235E+03
     45.113  0.2835E+01  0.1236E+03
     45.142  0.3065E+01  0.1237E+03
     45.171  0.3350E+01  0.1237E+03
     45.199  0.3648E+01  0.1239E+03
     45.228  0.3610E+01  0.1240E+03
     45.257  0.3909E+01  0.1241E+03
     45.285  0.3692E+01  0.1242E+03
     45.314  0.3541E+01  0.1243E+03
     45.342  0.3484E+01  0.1244E+03
     45.371  0.3557E+01  0.1245E+03
     45.400  0.3450E+01  0.1246E+03
     45.428  0.4022E+01  0.1247E+03
     45.457  0.2865E+01  0.1248E+03
     45.486  0.3036E+01  0.1249E+03
     45.514  0.3316E+01  0.1250E+03
     45.543  0.3464E+01  0.1251E+03
     45.572  0.3528E+01  0.1252E+03
     45.600  0.3653E+01  0.1253E+03
     45.629  0.3536E+01  0.1254E+03
     45.657  0.3797E+01  0.1255E+03
     45.686  0.3568E+01  0.1256E+03
     45.715  0.3402E+01  0.1257E+03
     45.743  0.3539E+01  0.1258E+03
     45.772  0.3206E+01  0.1259E+03
     45.801  0.3361E+01  0.1260E+03
     45.829  0.4327E+01  0.1261E+03
     45.858  0.4161E+01  0.1262E+03
     45.886  0.3844E+01  0.1263E+03
     45.915  0.3805E+01  0.1264E+03
     45.944  0.4019E+01  0.1265E+03
     45.972  0.3488E+01  0.1266E+03
     46.001  0.3294E+01  0.1267E+03
     46.030  0.3344E+01  0.1268E+03
     46.058  0.3488E+01  0.1269E+03
     46.087  0.3152E+01  0.1270E+03
     46.116  0.3466E+01  0.1271E+03
     46.144  0.4013E+01  0.1272E+03
     46.173  0.3836E+01  0.1273E+03
     46.201  0.4588E+01  0.1275E+03
     46.230  0.3582E+01  0.1276E+03
     46.259  0.4117E+01  0.1277E+03
     46.287  0.4016E+01  0.1278E+03
     46.316  0.4220E+01  0.1279E+03
     46.345  0.3212E+01  0.1280E+03
     46.373  0.3238E+01  0.1281E+03
     46.402  0.3874E+01  0.1282E+03
     46.431  0.4173E+01  0.1283E+03
     46.459  0.3704E+01  0.1285E+03
     46.488  0.4384E+01  0.1286E+03
     46.516  0.3958E+01  0.1287E+03
     46.545  0.4067E+01  0.1288E+03
     46.574  0.4085E+01  0.1289E+03
     46.602  0.4625E+01  0.1291E+03
     46.631  0.4652E+01  0.1292E+03
     46.660  0.4292E+01  0.1293E+03
     46.688  0.3889E+01  0.1294E+03
     46.717  0.4279E+01  0.1295E+03
     46.746  0.4205E+01  0.1297E+03
     46.774  0.3760E+01  0.1298E+03
     46.803  0.3825E+01  0.1299E+03
     46.831  0.3842E+01  0.1300E+03
     46.860  0.3922E+01  0.1301E+03
     46.889  0.3616E+01  0.1302E+03
     46.917  0.3765E+01  0.1303E+03
     46.946  0.4042E+01  0.1304E+03
     46.975  0.3659E+01  0.1305E+03
     47.003  0.2864E+01  0.1306E+03
     47.032  0.3234E+01  0.1307E+03
     47.061  0.3604E+01  0.1308E+03
     47.089  0.3306E+01  0.1309E+03
     47.118  0.2970E+01  0.1310E+03
     47.146  0.3707E+01  0.1311E+03
     47.175  0.3743E+01  0.1312E+03
     47.204  0.3645E+01  0.1313E+03
     47.232  0.3264E+01  0.1314E+03
     47.261  0.3825E+01  0.1315E+03
     47.290  0.3399E+01  0.1316E+03
     47.318  0.3920E+01  0.1317E+03
     47.347  0.2958E+01  0.1318E+03
     47.376  0.3469E+01  0.1319E+03
     47.404  0.3921E+01  0.1320E+03
     47.433  0.3598E+01  0.1321E+03
     47.461  0.3670E+01  0.1322E+03
     47.490  0.4015E+01  0.1323E+03
     47.519  0.3998E+01  0.1325E+03
     47.547  0.3894E+01  0.1326E+03
     47.576  0.3872E+01  0.1327E+03
     47.605  0.3950E+01  0.1328E+03
     47.633  0.3403E+01  0.1329E+03
     47.662  0.3707E+01  0.1330E+03
     47.691  0.4408E+01  0.1331E+03
     47.719  0.3879E+01  0.1332E+03
     47.748  0.3705E+01  0.1333E+03
     47.776  0.3885E+01  0.1335E+03
     47.805  0.3725E+01  0.1336E+03
     47.834  0.4118E+01  0.1337E+03
     47.862  0.3904E+01  0.1338E+03
     47.891  0.3840E+01  0.1339E+03
     47.920  0.4465E+01  0.1340E+03
     47.948  0.3495E+01  0.1341E+03
     47.977  0.4102E+01  0.1342E+03
     48.006  0.3504E+01  0.1343E+03
     48.034  0.3525E+01  0.1344E+03
     48.063  0.4114E+01  0.1346E+03
     48.091  0.4464E+01  0.1347E+03
     48.120  0.4342E+01  0.1348E+03
     48.149  0.4245E+01  0.1349E+03
     48.177  0.4212E+01  0.1351E+03
     48.206  0.4788E+01  0.1352E+03
     48.235  0.4056E+01  0.1353E+03
     48.263  0.3968E+01  0.1354E+03
     48.292  0.3609E+01  0.1355E+03
     48.321  0.4238E+01  0.1356E+03
     48.349  0.4706E+01  0.1358E+03
     48.378  0.4231E+01  0.1359E+03
     48.406  0.4257E+01  0.1360E+03
     48.435  0.3782E+01  0.1361E+03
     48.464  0.3960E+01  0.1362E+03
     48.492  0.3191E+01  0.1363E+03
     48.521  0.3418E+01  0.1364E+03
     48.550  0.3551E+01  0.1365E+03
     48.578  0.4090E+01  0.1367E+03
     48.607  0.3267E+01  0.1368E+03
     48.636  0.3567E+01  0.1369E+03
     48.664  0.4003E+01  0.1370E+03
     48.693  0.2960E+01  0.1371E+03
     48.721  0.3333E+01  0.1371E+03
     48.750  0.4267E+01  0.1373E+03
     48.779  0.3106E+01  0.1374E+03
     48.807  0.3591E+01  0.1375E+03
     48.836  0.4073E+01  0.1376E+03
     48.865  0.4327E+01  0.1377E+03
     48.893  0.3476E+01  0.1378E+03
     48.922  0.3565E+01  0.1379E+03
     48.951  0.3859E+01  0.1380E+03
     48.979  0.4357E+01  0.1381E+03
     49.008  0.4335E+01  0.1383E+03
     49.036  0.3557E+01  0.1384E+03
     49.065  0.2851E+01  0.1384E+03
     49.094  0.3583E+01  0.1385E+03
     49.122  0.3711E+01  0.1387E+03
     49.151  0.3812E+01  0.1388E+03
     49.180  0.4000E+01  0.1389E+03
     49.208  0.3817E+01  0.1390E+03
     49.237  0.3185E+01  0.1391E+03
     49.266  0.3172E+01  0.1392E+03
     49.294  0.3431E+01  0.1393E+03
     49.323  0.3179E+01  0.1394E+03
     49.351  0.4409E+01  0.1395E+03
     49.380  0.3640E+01  0.1396E+03
     49.409  0.3760E+01  0.1397E+03
     49.437  0.3857E+01  0.1398E+03
     49.466  0.3057E+01  0.1399E+03
     49.495  0.3877E+01  0.1400E+03
     49.523  0.3619E+01  0.1401E+03
     49.552  0.3289E+01  0.1402E+03
     49.580  0.3183E+01  0.1403E+03
     49.609  0.3390E+01  0.1404E+03
     49.638  0.4023E+01  0.1405E+03
     49.666  0.3703E+01  0.1406E+03
     49.695  0.3242E+01  0.1407E+03
     49.724  0.3208E+01  0.1408E+03
     49.752  0.3330E+01  0.1409E+03
     49.781  0.4066E+01  0.1410E+03
     49.810  0.3841E+01  0.1411E+03
     49.838  0.3674E+01  0.1412E+03
     49.867  0.3651E+01  0.1413E+03
     49.895  0.3368E+01  0.1414E+03
     49.924  0.3611E+01  0.1415E+03
     49.953  0.3522E+01  0.1416E+03
     49.981  0.3319E+01  0.1417E+03
     50.010  0.3572E+01  0.1418E+03
     50.039  0.2914E+01  0.1419E+03
     50.067  0.3457E+01  0.1420E+03
     50.096  0.3111E+01  0.1421E+03
     50.125  0.3155E+01  0.1422E+03
     50.153  0.3469E+01  0.1423E+03
     50.182  0.3662E+01  0.1424E+03
     50.210  0.3337E+01  0.1425E+03
     50.239  0.4234E+01  0.1426E+03
     50.268  0.3956E+01  0.1427E+03
     50.296  0.3365E+01  0.1428E+03
     50.325  0.3333E+01  0.1429E+03
     50.354  0.3303E+01  0.1430E+03
     50.382  0.3728E+01  0.1431E+03
     50.411  0.3810E+01  0.1432E+03
     50.440  0.4132E+01  0.1433E+03
     50.468  0.3770E+01  0.1435E+03
     50.497  0.3808E+01  0.1436E+03
     50.525  0.3644E+01  0.1437E+03
     50.554  0.3676E+01  0.1438E+03
     50.583  0.4010E+01  0.1439E+03
     50.611  0.3539E+01  0.1440E+03
     50.640  0.4165E+01  0.1441E+03
     50.669  0.3529E+01  0.1442E+03
     50.697  0.4013E+01  0.1443E+03
     50.726  0.4048E+01  0.1444E+03
     50.755  0.3616E+01  0.1445E+03
     50.783  0.3586E+01  0.1446E+03
     50.812  0.3336E+01  0.1447E+03
     50.840  0.4296E+01  0.1449E+03
     50.869  0.4253E+01  0.1450E+03
     50.898  0.4117E+01  0.1451E+03
     50.926  0.3816E+01  0.1452E+03
     50.955  0.4620E+01  0.1453E+03
     50.984  0.4122E+01  0.1455E+03
     51.012  0.4303E+01  0.1456E+03
     51.041  0.4528E+01  0.1457E+03
     51.070  0.4004E+01  0.1458E+03
     51.098  0.3549E+01  0.1459E+03
     51.127  0.3397E+01  0.1460E+03
     51.155  0.3423E+01  0.1461E+03
     51.184  0.3564E+01  0.1462E+03
     51.213  0.4157E+01  0.1463E+03
     51.241  0.3436E+01  0.1464E+03
     51.270  0.4332E+01  0.1466E+03
     51.299  0.4698E+01  0.1467E+03
     51.327  0.4484E+01  0.1468E+03
     51.356  0.4612E+01  0.1470E+03
     51.385  0.3863E+01  0.1471E+03
     51.413  0.3966E+01  0.1472E+03
     51.442  0.4098E+01  0.1473E+03
     51.470  0.3663E+01  0.1474E+03
     51.499  0.4073E+01  0.1475E+03
     51.528  0.3867E+01  0.1476E+03
     51.556  0.3949E+01  0.1478E+03
     51.585  0.3747E+01  0.1479E+03
     51.614  0.3759E+01  0.1480E+03
     51.642  0.4571E+01  0.1481E+03
     51.671  0.3826E+01  0.1482E+03
     51.700  0.3680E+01  0.1483E+03
     51.728  0.3345E+01  0.1484E+03
     51.757  0.3536E+01  0.1485E+03
     51.785  0.3904E+01  0.1486E+03
     51.814  0.3808E+01  0.1487E+03
     51.843  0.3838E+01  0.1488E+03
     51.871  0.3378E+01  0.1489E+03
     51.900  0.3141E+01  0.1490E+03
     51.929  0.3748E+01  0.1491E+03
     51.957  0.3718E+01  0.1492E+03
     51.986  0.3477E+01  0.1493E+03
     52.015  0.4340E+01  0.1495E+03
     52.043  0.3980E+01  0.1496E+03
     52.072  0.4214E+01  0.1497E+03
     52.100  0.4401E+01  0.1498E+03
     52.129  0.4122E+01  0.1499E+03
     52.158  0.3712E+01  0.1501E+03
     52.186  0.3473E+01  0.1501E+03
     52.215  0.3387E+01  0.1502E+03
     52.244  0.4011E+01  0.1504E+03
     52.272  0.3472E+01  0.1505E+03
     52.301  0.3840E+01  0.1506E+03
     52.330  0.3885E+01  0.1507E+03
     52.358  0.3486E+01  0.1508E+03
     52.387  0.3748E+01  0.1509E+03
     52.415  0.3604E+01  0.1510E+03
     52.444  0.4275E+01  0.1511E+03
     52.473  0.4041E+01  0.1512E+03
     52.501  0.2920E+01  0.1513E+03
     52.530  0.3461E+01  0.1514E+03
     52.559  0.4103E+01  0.1515E+03
     52.587  0.3987E+01  0.1516E+03
     52.616  0.4308E+01  0.1518E+03
     52.645  0.4202E+01  0.1519E+03
     52.673  0.3838E+01  0.1520E+03
     52.702  0.4306E+01  0.1521E+03
     52.730  0.4071E+01  0.1522E+03
     52.759  0.3939E+01  0.1524E+03
     52.788  0.3994E+01  0.1525E+03
     52.816  0.4034E+01  0.1526E+03
     52.845  0.4031E+01  0.1527E+03
     52.874  0.3928E+01  0.1528E+03
     52.902  0.3555E+01  0.1529E+03
     52.931  0.4447E+01  0.1530E+03
     52.959  0.4203E+01  0.1532E+03
     52.988  0.3498E+01  0.1533E+03
     53.017  0.3047E+01  0.1533E+03
     53.045  0.3860E+01  0.1535E+03
     53.074  0.3826E+01  0.1536E+03
     53.103  0.4129E+01  0.1537E+03
     53.131  0.4112E+01  0.1538E+03
     53.160  0.4641E+01  0.1539E+03
     53.189  0.4167E+01  0.1541E+03
     53.217  0.3727E+01  0.1542E+03
     53.246  0.4103E+01  0.1543E+03
     53.274  0.3941E+01  0.1544E+03
     53.303  0.4270E+01  0.1545E+03
     53.332  0.4375E+01  0.1546E+03
     53.360  0.3102E+01  0.1547E+03
     53.389  0.3783E+01  0.1548E+03
     53.418  0.3920E+01  0.1549E+03
     53.446  0.4259E+01  0.1551E+03
     53.475  0.4223E+01  0.1552E+03
     53.504  0.4407E+01  0.1553E+03
     53.532  0.3892E+01  0.1554E+03
     53.561  0.4389E+01  0.1556E+03
     53.589  0.3552E+01  0.1557E+03
     53.618  0.4073E+01  0.1558E+03
     53.647  0.3841E+01  0.1559E+03
     53.675  0.3819E+01  0.1560E+03
     53.704  0.3859E+01  0.1561E+03
     53.733  0.4567E+01  0.1562E+03
     53.761  0.3770E+01  0.1563E+03
     53.790  0.4261E+01  0.1565E+03
     53.819  0.3783E+01  0.1566E+03
     53.847  0.3031E+01  0.1567E+03
     53.876  0.4108E+01  0.1568E+03
     53.904  0.3811E+01  0.1569E+03
     53.933  0.3877E+01  0.1570E+03
     53.962  0.4922E+01  0.1571E+03
     53.990  0.3893E+01  0.1572E+03
     54.019  0.3304E+01  0.1573E+03
     54.048  0.4130E+01  0.1575E+03
     54.076  0.3945E+01  0.1576E+03
     54.105  0.3106E+01  0.1577E+03
     54.134  0.3615E+01  0.1578E+03
     54.162  0.4065E+01  0.1579E+03
     54.191  0.4153E+01  0.1580E+03
     54.219  0.4109E+01  0.1581E+03
     54.248  0.4572E+01  0.1583E+03
     54.277  0.4619E+01  0.1584E+03
     54.305  0.4067E+01  0.1585E+03
     54.334  0.4454E+01  0.1586E+03
     54.363  0.4407E+01  0.1588E+03
     54.391  0.3874E+01  0.1589E+03
     54.420  0.4061E+01  0.1590E+03
     54.449  0.4153E+01  0.1591E+03
     54.477  0.4114E+01  0.1592E+03
     54.506  0.4743E+01  0.1594E+03
     54.534  0.5387E+01  0.1595E+03
     54.563  0.4603E+01  0.1596E+03
     54.592  0.4515E+01  0.1598E+03
     54.620  0.4119E+01  0.1599E+03
     54.649  0.4119E+01  0.1600E+03
     54.678  0.4876E+01  0.1601E+03
     54.706  0.4463E+01  0.1603E+03
     54.735  0.5292E+01  0.1604E+03
     54.764  0.4450E+01  0.1606E+03
     54.792  0.5518E+01  0.1607E+03
     54.821  0.4648E+01  0.1608E+03
     54.849  0.4223E+01  0.1610E+03
     54.878  0.4608E+01  0.1611E+03
     54.907  0.3719E+01  0.1612E+03
     54.935  0.4908E+01  0.1613E+03
     54.964  0.4298E+01  0.1615E+03
     54.993  0.4442E+01  0.1616E+03
     55.021  0.4728E+01  0.1617E+03
     55.050  0.4635E+01  0.1619E+03
     55.079  0.5452E+01  0.1620E+03
     55.107  0.4642E+01  0.1621E+03
     55.136  0.3905E+01  0.1623E+03
     55.164  0.4309E+01  0.1624E+03
     55.193  0.4446E+01  0.1625E+03
     55.222  0.4166E+01  0.1626E+03
     55.250  0.3833E+01  0.1627E+03
     55.279  0.3362E+01  0.1628E+03
     55.308  0.3647E+01  0.1629E+03
     55.336  0.2815E+01  0.1630E+03
     55.365  0.4150E+01  0.1631E+03
     55.394  0.3256E+01  0.1632E+03
     55.422  0.3506E+01  0.1633E+03
     55.451  0.3245E+01  0.1634E+03
     55.479  0.3961E+01  0.1635E+03
     55.508  0.3395E+01  0.1636E+03
     55.537  0.4309E+01  0.1638E+03
     55.565  0.3553E+01  0.1639E+03
     55.594  0.3388E+01  0.1640E+03
     55.623  0.3864E+01  0.1641E+03
     55.651  0.4217E+01  0.1642E+03
     55.680  0.4781E+01  0.1643E+03
     55.709  0.4090E+01  0.1644E+03
     55.737  0.4193E+01  0.1646E+03
     55.766  0.3764E+01  0.1647E+03
     55.794  0.3961E+01  0.1648E+03
     55.823  0.4224E+01  0.1649E+03
     55.852  0.4440E+01  0.1650E+03
     55.880  0.4687E+01  0.1652E+03
     55.909  0.4350E+01  0.1653E+03
     55.938  0.4392E+01  0.1654E+03
     55.966  0.4349E+01  0.1655E+03
     55.995  0.4390E+01  0.1657E+03
     56.024  0.4548E+01  0.1658E+03
     56.052  0.4107E+01  0.1659E+03
     56.081  0.4218E+01  0.1660E+03
     56.109  0.4304E+01  0.1662E+03
     56.138  0.4369E+01  0.1663E+03
     56.167  0.4388E+01  0.1664E+03
     56.195  0.4282E+01  0.1665E+03
     56.224  0.4568E+01  0.1667E+03
     56.253  0.3954E+01  0.1668E+03
     56.281  0.4276E+01  0.1669E+03
     56.310  0.4243E+01  0.1670E+03
     56.338  0.4351E+01  0.1671E+03
     56.367  0.4693E+01  0.1673E+03
     56.396  0.4126E+01  0.1674E+03
     56.424  0.4562E+01  0.1675E+03
     56.453  0.4185E+01  0.1677E+03
     56.482  0.4117E+01  0.1678E+03
     56.510  0.4158E+01  0.1679E+03
     56.539  0.5174E+01  0.1680E+03
     56.568  0.4491E+01  0.1682E+03
     56.596  0.4568E+01  0.1683E+03
     56.625  0.3608E+01  0.1684E+03
     56.653  0.5094E+01  0.1685E+03
     56.682  0.4236E+01  0.1687E+03
     56.711  0.4694E+01  0.1688E+03
     56.739  0.4272E+01  0.1689E+03
     56.768  0.4650E+01  0.1691E+03
     56.797  0.3995E+01  0.1692E+03
     56.825  0.4713E+01  0.1693E+03
     56.854  0.4651E+01  0.1694E+03
     56.883  0.5239E+01  0.1696E+03
     56.911  0.4307E+01  0.1697E+03
     56.940  0.4282E+01  0.1698E+03
     56.968  0.4861E+01  0.1700E+03
     56.997  0.5055E+01  0.1701E+03
     57.026  0.4851E+01  0.1703E+03
     57.054  0.4365E+01  0.1704E+03
     57.083  0.4064E+01  0.1705E+03
     57.112  0.4536E+01  0.1706E+03
     57.140  0.4032E+01  0.1707E+03
     57.169  0.4000E+01  0.1709E+03
     57.198  0.3767E+01  0.1710E+03
     57.226  0.4591E+01  0.1711E+03
     57.255  0.4003E+01  0.1712E+03
     57.283  0.4247E+01  0.1713E+03
     57.312  0.4188E+01  0.1715E+03
     57.341  0.3918E+01  0.1716E+03
     57.369  0.3533E+01  0.1717E+03
     57.398  0.3346E+01  0.1718E+03
     57.427  0.3664E+01  0.1719E+03
     57.455  0.4226E+01  0.1720E+03
     57.484  0.4441E+01  0.1721E+03
     57.513  0.4807E+01  0.1723E+03
     57.541  0.4241E+01  0.1724E+03
     57.570  0.3644E+01  0.1725E+03
     57.598  0.4069E+01  0.1726E+03
     57.627  0.3735E+01  0.1727E+03
     57.656  0.3567E+01  0.1728E+03
     57.684  0.4383E+01  0.1729E+03
     57.713  0.4230E+01  0.1731E+03
     57.742  0.3688E+01  0.1732E+03
     57.770  0.4351E+01  0.1733E+03
     57.799  0.4288E+01  0.1734E+03
     57.828  0.4028E+01  0.1735E+03
     57.856  0.4272E+01  0.1736E+03
     57.885  0.4214E+01  0.1738E+03
     57.913  0.3736E+01  0.1739E+03
     57.942  0.4888E+01  0.1740E+03
     57.971  0.4774E+01  0.1741E+03
     57.999  0.4387E+01  0.1743E+03
     58.028  0.3704E+01  0.1744E+03
     58.057  0.4235E+01  0.1745E+03
     58.085  0.4731E+01  0.1746E+03
     58.114  0.4221E+01  0.1748E+03
     58.143  0.3784E+01  0.1749E+03
     58.171  0.4643E+01  0.1750E+03
     58.200  0.4318E+01  0.1751E+03
     58.228  0.3546E+01  0.1752E+03
     58.257  0.4526E+01  0.1754E+03
     58.286  0.4868E+01  0.1755E+03
     58.314  0.3948E+01  0.1756E+03
     58.343  0.3491E+01  0.1757E+03
     58.372  0.4604E+01  0.1758E+03
     58.400  0.3896E+01  0.1759E+03
     58.429  0.4010E+01  0.1761E+03
     58.458  0.4056E+01  0.1762E+03
     58.486  0.4522E+01  0.1763E+03
     58.515  0.3916E+01  0.1764E+03
     58.543  0.4376E+01  0.1765E+03
     58.572  0.4395E+01  0.1767E+03
     58.601  0.3837E+01  0.1768E+03
     58.629  0.3790E+01  0.1769E+03
     58.658  0.4029E+01  0.1770E+03
     58.687  0.4092E+01  0.1771E+03
     58.715  0.4490E+01  0.1773E+03
     58.744  0.4226E+01  0.1774E+03
     58.773  0.3876E+01  0.1775E+03
     58.801  0.4358E+01  0.1776E+03
     58.830  0.4749E+01  0.1777E+03
     58.858  0.5285E+01  0.1779E+03
     58.887  0.4624E+01  0.1780E+03
     58.916  0.3872E+01  0.1781E+03
     58.944  0.3733E+01  0.1782E+03
     58.973  0.4579E+01  0.1784E+03
     59.002  0.5151E+01  0.1785E+03
     59.030  0.4153E+01  0.1786E+03
     59.059  0.3942E+01  0.1788E+03
     59.088  0.4264E+01  0.1789E+03
     59.116  0.4718E+01  0.1790E+03
     59.145  0.4693E+01  0.1791E+03
     59.173  0.4169E+01  0.1793E+03
     59.202  0.3982E+01  0.1794E+03
     59.231  0.4602E+01  0.1795E+03
     59.259  0.4167E+01  0.1796E+03
     59.288  0.4150E+01  0.1798E+03
     59.317  0.4825E+01  0.1799E+03
     59.345  0.3873E+01  0.1800E+03
     59.374  0.4732E+01  0.1801E+03
     59.403  0.4254E+01  0.1803E+03
     59.431  0.3741E+01  0.1804E+03
     59.460  0.3920E+01  0.1805E+03
     59.488  0.4154E+01  0.1806E+03
     59.517  0.4034E+01  0.1807E+03
     59.546  0.3620E+01  0.1808E+03
     59.574  0.4194E+01  0.1809E+03
     59.603  0.4901E+01  0.1811E+03
     59.632  0.4268E+01  0.1812E+03
     59.660  0.4202E+01  0.1813E+03
     59.689  0.4251E+01  0.1814E+03
     59.717  0.3962E+01  0.1816E+03
     59.746  0.5131E+01  0.1817E+03
     59.775  0.4302E+01  0.1818E+03
     59.803  0.4301E+01  0.1819E+03
     59.832  0.4387E+01  0.1821E+03
     59.861  0.4167E+01  0.1822E+03
     59.889  0.4137E+01  0.1823E+03
     59.918  0.4162E+01  0.1824E+03
     59.947  0.4439E+01  0.1826E+03
     59.975  0.4660E+01  0.1827E+03
     60.004  0.4370E+01  0.1828E+03
     60.032  0.4619E+01  0.1829E+03
     60.061  0.4252E+01  0.1831E+03
     60.090  0.4420E+01  0.1832E+03
     60.118  0.3413E+01  0.1833E+03
     60.147  0.4139E+01  0.1834E+03
     60.176  0.3898E+01  0.1835E+03
     60.204  0.4312E+01  0.1836E+03
     60.233  0.4313E+01  0.1838E+03
     60.262  0.4434E+01  0.1839E+03
     60.290  0.3781E+01  0.1840E+03
     60.319  0.3922E+01  0.1841E+03
     60.347  0.3928E+01  0.1842E+03
     60.376  0.4242E+01  0.1844E+03
     60.405  0.4743E+01  0.1845E+03
     60.433  0.4952E+01  0.1846E+03
     60.462  0.3965E+01  0.1847E+03
     60.491  0.4596E+01  0.1849E+03
     60.519  0.4047E+01  0.1850E+03
     60.548  0.4940E+01  0.1851E+03
     60.577  0.4477E+01  0.1853E+03
     60.605  0.4515E+01  0.1854E+03
     60.634  0.3595E+01  0.1855E+03
     60.662  0.3751E+01  0.1856E+03
     60.691  0.4090E+01  0.1857E+03
     60.720  0.3980E+01  0.1858E+03
     60.748  0.3856E+01  0.1859E+03
     60.777  0.3262E+01  0.1860E+03
     60.806  0.4169E+01  0.1862E+03
     60.834  0.4131E+01  0.1863E+03
     60.863  0.3630E+01  0.1864E+03
     60.892  0.4436E+01  0.1865E+03
     60.920  0.3893E+01  0.1866E+03
     60.949  0.4960E+01  0.1868E+03
     60.977  0.4019E+01  0.1869E+03
     61.006  0.3531E+01  0.1870E+03
     61.035  0.3783E+01  0.1871E+03
     61.063  0.3751E+01  0.1872E+03
     61.092  0.4037E+01  0.1873E+03
     61.121  0.3914E+01  0.1874E+03
     61.149  0.4632E+01  0.1875E+03
     61.178  0.4173E+01  0.1877E+03
     61.207  0.4331E+01  0.1878E+03
     61.235  0.4528E+01  0.1879E+03
     61.264  0.4153E+01  0.1880E+03
     61.292  0.4503E+01  0.1882E+03
     61.321  0.4292E+01  0.1883E+03
     61.350  0.4146E+01  0.1884E+03
     61.378  0.4495E+01  0.1885E+03
     61.407  0.4368E+01  0.1887E+03
     61.436  0.4857E+01  0.1888E+03
     61.464  0.5003E+01  0.1889E+03
     61.493  0.4853E+01  0.1891E+03
     61.522  0.5818E+01  0.1893E+03
     61.550  0.5342E+01  0.1894E+03
     61.579  0.4264E+01  0.1895E+03
     61.607  0.4524E+01  0.1897E+03
     61.636  0.4595E+01  0.1898E+03
     61.665  0.4273E+01  0.1899E+03
     61.693  0.4330E+01  0.1900E+03
     61.722  0.4082E+01  0.1902E+03
     61.751  0.3909E+01  0.1903E+03
     61.779  0.4447E+01  0.1904E+03
     61.808  0.3912E+01  0.1905E+03
     61.837  0.4416E+01  0.1906E+03
     61.865  0.4506E+01  0.1908E+03
     61.894  0.3578E+01  0.1909E+03
     61.922  0.3862E+01  0.1910E+03
     61.951  0.3883E+01  0.1911E+03
     61.980  0.3747E+01  0.1912E+03
     62.008  0.4353E+01  0.1913E+03
     62.037  0.4194E+01  0.1914E+03
     62.066  0.4157E+01  0.1916E+03
     62.094  0.4039E+01  0.1917E+03
     62.123  0.3844E+01  0.1918E+03
     62.152  0.4126E+01  0.1919E+03
     62.180  0.4149E+01  0.1920E+03
     62.209  0.4002E+01  0.1921E+03
     62.237  0.3437E+01  0.1922E+03
     62.266  0.3652E+01  0.1923E+03
     62.295  0.3978E+01  0.1924E+03
     62.323  0.4706E+01  0.1926E+03
     62.352  0.4221E+01  0.1927E+03
     62.381  0.4384E+01  0.1928E+03
     62.409  0.4186E+01  0.1930E+03
     62.438  0.4286E+01  0.1931E+03
     62.467  0.3811E+01  0.1932E+03
     62.495  0.4460E+01  0.1933E+03
     62.524  0.4148E+01  0.1934E+03
     62.552  0.4584E+01  0.1936E+03
     62.581  0.4492E+01  0.1937E+03
     62.610  0.4940E+01  0.1938E+03
     62.638  0.4824E+01  0.1940E+03
     62.667  0.5137E+01  0.1941E+03
     62.696  0.5557E+01  0.1943E+03
     62.724  0.5568E+01  0.1944E+03
     62.753  0.5587E+01  0.1946E+03
     62.782  0.4395E+01  0.1947E+03
     62.810  0.4502E+01  0.1948E+03
     62.839  0.4886E+01  0.1950E+03
     62.867  0.4942E+01  0.1951E+03
     62.896  0.4727E+01  0.1953E+03
     62.925  0.3728E+01  0.1954E+03
     62.953  0.4234E+01  0.1955E+03
     62.982  0.4328E+01  0.1956E+03
     63.011  0.4246E+01  0.1957E+03
     63.039  0.4592E+01  0.1959E+03
     63.068  0.3981E+01  0.1960E+03
     63.096  0.5020E+01  0.1961E+03
     63.125  0.4908E+01  0.1963E+03
     63.154  0.4279E+01  0.1964E+03
     63.182  0.4027E+01  0.1965E+03
     63.211  0.4077E+01  0.1966E+03
     63.240  0.4098E+01  0.1967E+03
     63.268  0.3920E+01  0.1969E+03
     63.297  0.4177E+01  0.1970E+03
     63.326  0.3314E+01  0.1971E+03
     63.354  0.4157E+01  0.1972E+03
     63.383  0.4658E+01  0.1973E+03
     63.411  0.4800E+01  0.1975E+03
     63.440  0.4142E+01  0.1976E+03
     63.469  0.4665E+01  0.1977E+03
     63.497  0.4332E+01  0.1978E+03
     63.526  0.4139E+01  0.1980E+03
     63.555  0.4546E+01  0.1981E+03
     63.583  0.4301E+01  0.1982E+03
     63.612  0.4353E+01  0.1983E+03
     63.641  0.4261E+01  0.1985E+03
     63.669  0.4535E+01  0.1986E+03
     63.698  0.4835E+01  0.1987E+03
     63.726  0.4475E+01  0.1988E+03
     63.755  0.4920E+01  0.1990E+03
     63.784  0.4916E+01  0.1991E+03
     63.812  0.4292E+01  0.1993E+03
     63.841  0.5137E+01  0.1994E+03
     63.870  0.4345E+01  0.1995E+03
     63.898  0.4215E+01  0.1996E+03
     63.927  0.5044E+01  0.1998E+03
     63.956  0.4270E+01  0.1999E+03
     63.984  0.4615E+01  0.2000E+03
     64.013  0.4330E+01  0.2002E+03
     64.041  0.4279E+01  0.2003E+03
     64.070  0.4723E+01  0.2004E+03
     64.099  0.4025E+01  0.2005E+03
     64.127  0.3342E+01  0.2006E+03
     64.156  0.4299E+01  0.2008E+03
     64.185  0.4198E+01  0.2009E+03
     64.213  0.3987E+01  0.2010E+03
     64.242  0.4550E+01  0.2011E+03
     64.271  0.4627E+01  0.2013E+03
     64.299  0.3913E+01  0.2014E+03
     64.328  0.4153E+01  0.2015E+03
     64.356  0.4118E+01  0.2016E+03
     64.385  0.3954E+01  0.2017E+03
     64.414  0.4582E+01  0.2019E+03
     64.442  0.4510E+01  0.2020E+03
     64.471  0.4216E+01  0.2021E+03
     64.500  0.4414E+01  0.2022E+03
     64.528  0.4832E+01  0.2024E+03
     64.557  0.4433E+01  0.2025E+03
     64.586  0.4688E+01  0.2026E+03
     64.614  0.4433E+01  0.2028E+03
     64.643  0.4212E+01  0.2029E+03
     64.671  0.3824E+01  0.2030E+03
     64.700  0.4082E+01  0.2031E+03
     64.729  0.4233E+01  0.2032E+03
     64.757  0.3908E+01  0.2033E+03
     64.786  0.3837E+01  0.2034E+03
     64.815  0.4231E+01  0.2036E+03
     64.843  0.4027E+01  0.2037E+03
     64.872  0.3764E+01  0.2038E+03
     64.901  0.3525E+01  0.2039E+03
     64.929  0.4646E+01  0.2040E+03
     64.958  0.4547E+01  0.2042E+03
     64.986  0.4385E+01  0.2043E+03
     65.015  0.4638E+01  0.2044E+03
     65.044  0.5186E+01  0.2046E+03
     65.072  0.4736E+01  0.2047E+03
     65.101  0.5030E+01  0.2048E+03
     65.130  0.3769E+01  0.2049E+03
     65.158  0.4651E+01  0.2051E+03
     65.187  0.4819E+01  0.2052E+03
     65.216  0.4905E+01  0.2054E+03
     65.244  0.4684E+01  0.2055E+03
     65.273  0.4514E+01  0.2056E+03
     65.301  0.4237E+01  0.2057E+03
     65.330  0.3856E+01  0.2059E+03
     65.359  0.4533E+01  0.2060E+03
     65.387  0.4811E+01  0.2061E+03
     65.416  0.3848E+01  0.2062E+03
     65.445  0.4244E+01  0.2064E+03
     65.473  0.3632E+01  0.2065E+03
     65.502  0.4428E+01  0.2066E+03
     65.531  0.3817E+01  0.2067E+03
     65.559  0.4341E+01  0.2068E+03
     65.588  0.3678E+01  0.2069E+03
     65.616  0.3797E+01  0.2070E+03
     65.645  0.3692E+01  0.2071E+03
     65.674  0.3609E+01  0.2072E+03
     65.702  0.3762E+01  0.2073E+03
     65.731  0.4537E+01  0.2075E+03
     65.760  0.4535E+01  0.2076E+03
     65.788  0.4872E+01  0.2077E+03
     65.817  0.4045E+01  0.2079E+03
     65.846  0.3920E+01  0.2080E+03
     65.874  0.4499E+01  0.2081E+03
     65.903  0.4233E+01  0.2082E+03
     65.931  0.4362E+01  0.2084E+03
     65.960  0.4552E+01  0.2085E+03
     65.989  0.5030E+01  0.2086E+03
     66.017  0.4469E+01  0.2088E+03
     66.046  0.4153E+01  0.2089E+03
     66.075  0.4980E+01  0.2090E+03
     66.103  0.4660E+01  0.2091E+03
     66.132  0.4841E+01  0.2093E+03
     66.161  0.4541E+01  0.2094E+03
     66.189  0.3895E+01  0.2095E+03
     66.218  0.3811E+01  0.2096E+03
     66.246  0.4881E+01  0.2098E+03
     66.275  0.4502E+01  0.2099E+03
     66.304  0.4966E+01  0.2100E+03
     66.332  0.5394E+01  0.2102E+03
     66.361  0.4738E+01  0.2103E+03
     66.390  0.4400E+01  0.2105E+03
     66.418  0.4996E+01  0.2106E+03
     66.447  0.4464E+01  0.2107E+03
     66.476  0.4193E+01  0.2109E+03
     66.504  0.4564E+01  0.2110E+03
     66.533  0.4577E+01  0.2111E+03
     66.561  0.4924E+01  0.2113E+03
     66.590  0.4922E+01  0.2114E+03
     66.619  0.4877E+01  0.2115E+03
     66.647  0.4417E+01  0.2117E+03
     66.676  0.4653E+01  0.2118E+03
     66.705  0.4478E+01  0.2119E+03
     66.733  0.4229E+01  0.2120E+03
     66.762  0.4501E+01  0.2122E+03
     66.790  0.5315E+01  0.2123E+03
     66.819  0.5496E+01  0.2125E+03
     66.848  0.5248E+01  0.2126E+03
     66.876  0.5241E+01  0.2128E+03
     66.905  0.4189E+01  0.2129E+03
     66.934  0.5109E+01  0.2131E+03
     66.962  0.4952E+01  0.2132E+03
     66.991  0.4001E+01  0.2133E+03
     67.020  0.4124E+01  0.2134E+03
     67.048  0.4137E+01  0.2135E+03
     67.077  0.5007E+01  0.2137E+03
     67.105  0.4802E+01  0.2138E+03
     67.134  0.5056E+01  0.2140E+03
     67.163  0.4042E+01  0.2141E+03
     67.191  0.4189E+01  0.2142E+03
     67.220  0.4133E+01  0.2143E+03
     67.249  0.4514E+01  0.2145E+03
     67.277  0.4286E+01  0.2146E+03
     67.306  0.4405E+01  0.2147E+03
     67.335  0.4350E+01  0.2148E+03
     67.363  0.4301E+01  0.2150E+03
     67.392  0.4096E+01  0.2151E+03
     67.420  0.4823E+01  0.2152E+03
     67.449  0.4538E+01  0.2153E+03
     67.478  0.4014E+01  0.2155E+03
     67.506  0.4355E+01  0.2156E+03
     67.535  0.4042E+01  0.2157E+03
     67.564  0.4397E+01  0.2158E+03
     67.592  0.4705E+01  0.2160E+03
     67.621  0.4700E+01  0.2161E+03
     67.650  0.3765E+01  0.2162E+03
     67.678  0.5146E+01  0.2163E+03
     67.707  0.4423E+01  0.2165E+03
     67.735  0.4751E+01  0.2166E+03
     67.764  0.4445E+01  0.2167E+03
     67.793  0.4640E+01  0.2169E+03
     67.821  0.4296E+01  0.2170E+03
     67.850  0.4139E+01  0.2171E+03
     67.879  0.4597E+01  0.2172E+03
     67.907  0.4568E+01  0.2174E+03
     67.936  0.4378E+01  0.2175E+03
     67.965  0.4843E+01  0.2176E+03
     67.993  0.3958E+01  0.2177E+03
     68.022  0.4705E+01  0.2179E+03
     68.050  0.4707E+01  0.2180E+03
     68.079  0.4440E+01  0.2181E+03
     68.108  0.5045E+01  0.2183E+03
     68.136  0.5025E+01  0.2184E+03
     68.165  0.4792E+01  0.2186E+03
     68.194  0.4296E+01  0.2187E+03
     68.222  0.4580E+01  0.2188E+03
     68.251  0.5132E+01  0.2190E+03
     68.280  0.5151E+01  0.2191E+03
     68.308  0.4381E+01  0.2192E+03
     68.337  0.4762E+01  0.2194E+03
     68.365  0.5454E+01  0.2195E+03
     68.394  0.5048E+01  0.2197E+03
     68.423  0.4748E+01  0.2198E+03
     68.451  0.4442E+01  0.2199E+03
     68.480  0.4475E+01  0.2201E+03
     68.509  0.4777E+01  0.2202E+03
     68.537  0.4724E+01  0.2203E+03
     68.566  0.4833E+01  0.2205E+03
     68.595  0.4705E+01  0.2206E+03
     68.623  0.4962E+01  0.2208E+03
     68.652  0.5118E+01  0.2209E+03
     68.680  0.5369E+01  0.2211E+03
     68.709  0.5022E+01  0.2212E+03
     68.738  0.4822E+01  0.2213E+03
     68.766  0.4430E+01  0.2215E+03
     68.795  0.4297E+01  0.2216E+03
     68.824  0.4162E+01  0.2217E+03
     68.852  0.4884E+01  0.2218E+03
     68.881  0.4995E+01  0.2220E+03
     68.910  0.4755E+01  0.2221E+03
     68.938  0.4322E+01  0.2223E+03
     68.967  0.4609E+01  0.2224E+03
     68.995  0.4569E+01  0.2225E+03
     69.024  0.4367E+01  0.2226E+03
     69.053  0.3676E+01  0.2227E+03
     69.081  0.4145E+01  0.2229E+03
     69.110  0.4452E+01  0.2230E+03
     69.139  0.4439E+01  0.2231E+03
     69.167  0.4323E+01  0.2232E+03
     69.196  0.4851E+01  0.2234E+03
     69.225  0.3754E+01  0.2235E+03
     69.253  0.4143E+01  0.2236E+03
     69.282  0.4280E+01  0.2237E+03
     69.310  0.4323E+01  0.2239E+03
     69.339  0.4540E+01  0.2240E+03
     69.368  0.4533E+01  0.2241E+03
     69.396  0.5134E+01  0.2243E+03
     69.425  0.5286E+01  0.2244E+03
     69.454  0.4575E+01  0.2245E+03
     69.482  0.4568E+01  0.2247E+03
     69.511  0.4729E+01  0.2248E+03
     69.540  0.4655E+01  0.2249E+03
     69.568  0.4821E+01  0.2251E+03
     69.597  0.4602E+01  0.2252E+03
     69.625  0.4898E+01  0.2254E+03
     69.654  0.3670E+01  0.2255E+03
     69.683  0.4370E+01  0.2256E+03
     69.711  0.4898E+01  0.2257E+03
     69.740  0.3911E+01  0.2258E+03
     69.769  0.4470E+01  0.2260E+03
     69.797  0.4497E+01  0.2261E+03
     69.826  0.4748E+01  0.2262E+03
     69.855  0.4749E+01  0.2264E+03
     69.883  0.4418E+01  0.2265E+03
     69.912  0.3981E+01  0.2266E+03
     69.940  0.4869E+01  0.2267E+03
     69.969  0.5096E+01  0.2269E+03
     69.998  0.4692E+01  0.2270E+03
     70.026  0.5628E+01  0.2272E+03
     70.055  0.4418E+01  0.2273E+03
     70.084  0.4367E+01  0.2274E+03
     70.112  0.4569E+01  0.2276E+03
     70.141  0.4058E+01  0.2277E+03
     70.169  0.4956E+01  0.2278E+03
     70.198  0.4758E+01  0.2280E+03
     70.227  0.4330E+01  0.2281E+03
     70.255  0.4594E+01  0.2282E+03
     70.284  0.4080E+01  0.2283E+03
     70.313  0.4476E+01  0.2285E+03
     70.341  0.4773E+01  0.2286E+03
     70.370  0.4412E+01  0.2287E+03
     70.399  0.4446E+01  0.2289E+03
     70.427  0.5024E+01  0.2290E+03
     70.456  0.4449E+01  0.2291E+03
     70.484  0.4957E+01  0.2293E+03
     70.513  0.5176E+01  0.2294E+03
     70.542  0.4047E+01  0.2295E+03
     70.570  0.4162E+01  0.2296E+03
     70.599  0.4769E+01  0.2298E+03
     70.628  0.4997E+01  0.2299E+03
     70.656  0.5233E+01  0.2301E+03
     70.685  0.5379E+01  0.2302E+03
     70.714  0.4782E+01  0.2304E+03
     70.742  0.4697E+01  0.2305E+03
     70.771  0.4136E+01  0.2306E+03
     70.799  0.4616E+01  0.2308E+03
     70.828  0.4380E+01  0.2309E+03
     70.857  0.4228E+01  0.2310E+03
     70.885  0.3677E+01  0.2311E+03
     70.914  0.4161E+01  0.2312E+03
     70.943  0.4567E+01  0.2314E+03
     70.971  0.4627E+01  0.2315E+03
     71.000  0.4516E+01  0.2316E+03
     71.029  0.4908E+01  0.2318E+03
     71.057  0.4688E+01  0.2319E+03
     71.086  0.4219E+01  0.2320E+03
     71.114  0.5380E+01  0.2322E+03
     71.143  0.4929E+01  0.2323E+03
     71.172  0.4915E+01  0.2325E+03
     71.200  0.5037E+01  0.2326E+03
     71.229  0.5098E+01  0.2327E+03
     71.258  0.4522E+01  0.2329E+03
     71.286  0.4446E+01  0.2330E+03
     71.315  0.3859E+01  0.2331E+03
     71.344  0.4520E+01  0.2332E+03
     71.372  0.4000E+01  0.2334E+03
     71.401  0.4748E+01  0.2335E+03
     71.429  0.5135E+01  0.2336E+03
     71.458  0.4772E+01  0.2338E+03
     71.487  0.4130E+01  0.2339E+03
     71.515  0.3945E+01  0.2340E+03
     71.544  0.5485E+01  0.2342E+03
     71.573  0.4652E+01  0.2343E+03
     71.601  0.4801E+01  0.2344E+03
     71.630  0.4262E+01  0.2346E+03
     71.659  0.3838E+01  0.2347E+03
     71.687  0.3916E+01  0.2348E+03
     71.716  0.4241E+01  0.2349E+03
     71.744  0.4737E+01  0.2350E+03
     71.773  0.4212E+01  0.2352E+03
     71.802  0.4747E+01  0.2353E+03
     71.830  0.4200E+01  0.2354E+03
     71.859  0.4141E+01  0.2355E+03
     71.888  0.4817E+01  0.2357E+03
     71.916  0.4544E+01  0.2358E+03
     71.945  0.4002E+01  0.2359E+03
     71.974  0.3935E+01  0.2360E+03
     72.002  0.3747E+01  0.2361E+03
     72.031  0.5207E+01  0.2363E+03
     72.059  0.5347E+01  0.2364E+03
     72.088  0.4365E+01  0.2366E+03
     72.117  0.4630E+01  0.2367E+03
     72.145  0.5179E+01  0.2368E+03
     72.174  0.4318E+01  0.2370E+03
     72.203  0.4827E+01  0.2371E+03
     72.231  0.4698E+01  0.2372E+03
     72.260  0.4303E+01  0.2374E+03
     72.289  0.4056E+01  0.2375E+03
     72.317  0.4961E+01  0.2376E+03
     72.346  0.4611E+01  0.2377E+03
     72.374  0.4644E+01  0.2379E+03
     72.403  0.4773E+01  0.2380E+03
     72.432  0.4885E+01  0.2382E+03
     72.460  0.5113E+01  0.2383E+03
     72.489  0.4193E+01  0.2384E+03
     72.518  0.4463E+01  0.2386E+03
     72.546  0.4567E+01  0.2387E+03
     72.575  0.4410E+01  0.2388E+03
     72.604  0.3892E+01  0.2389E+03
     72.632  0.4884E+01  0.2391E+03
     72.661  0.4878E+01  0.2392E+03
     72.689  0.4432E+01  0.2393E+03
     72.718  0.3950E+01  0.2394E+03
     72.747  0.4925E+01  0.2396E+03
     72.775  0.4396E+01  0.2397E+03
     72.804  0.4517E+01  0.2398E+03
     72.833  0.4245E+01  0.2400E+03
     72.861  0.3912E+01  0.2401E+03
     72.890  0.4049E+01  0.2402E+03
     72.919  0.5621E+01  0.2403E+03
     72.947  0.5111E+01  0.2405E+03
     72.976  0.4525E+01  0.2406E+03
     73.004  0.4729E+01  0.2408E+03
     73.033  0.4590E+01  0.2409E+03
     73.062  0.5108E+01  0.2410E+03
     73.090  0.4360E+01  0.2412E+03
     73.119  0.4146E+01  0.2413E+03
     73.148  0.4027E+01  0.2414E+03
     73.176  0.4878E+01  0.2415E+03
     73.205  0.5984E+01  0.2417E+03
     73.234  0.4609E+01  0.2418E+03
     73.262  0.4576E+01  0.2420E+03
     73.291  0.4443E+01  0.2421E+03
     73.319  0.3912E+01  0.2422E+03
     73.348  0.5091E+01  0.2424E+03
     73.377  0.5360E+01  0.2425E+03
     73.405  0.5375E+01  0.2427E+03
     73.434  0.5652E+01  0.2428E+03
     73.463  0.4582E+01  0.2430E+03
     73.491  0.5713E+01  0.2431E+03
     73.520  0.5048E+01  0.2433E+03
     73.548  0.4811E+01  0.2434E+03
     73.577  0.4943E+01  0.2435E+03
     73.606  0.5079E+01  0.2437E+03
     73.634  0.4407E+01  0.2438E+03
     73.663  0.4654E+01  0.2439E+03
     73.692  0.4012E+01  0.2441E+03
     73.720  0.3900E+01  0.2442E+03
     73.749  0.4599E+01  0.2443E+03
     73.778  0.5083E+01  0.2445E+03
     73.806  0.4919E+01  0.2446E+03
     73.835  0.4389E+01  0.2447E+03
     73.863  0.5200E+01  0.2449E+03
     73.892  0.4780E+01  0.2450E+03
     73.921  0.5088E+01  0.2451E+03
     73.949  0.5436E+01  0.2453E+03
     73.978  0.4955E+01  0.2454E+03
     74.007  0.4940E+01  0.2456E+03
     74.035  0.4708E+01  0.2457E+03
     74.064  0.4143E+01  0.2458E+03
     74.093  0.5251E+01  0.2460E+03
     74.121  0.4411E+01  0.2461E+03
     74.150  0.4383E+01  0.2462E+03
     74.178  0.4628E+01  0.2464E+03
     74.207  0.5595E+01  0.2465E+03
     74.236  0.4477E+01  0.2467E+03
     74.264  0.4875E+01  0.2468E+03
     74.293  0.4917E+01  0.2469E+03
     74.322  0.4394E+01  0.2471E+03
     74.350  0.4116E+01  0.2472E+03
     74.379  0.3685E+01  0.2473E+03
     74.408  0.4187E+01  0.2474E+03
     74.436  0.4567E+01  0.2475E+03
     74.465  0.4610E+01  0.2477E+03
     74.493  0.4840E+01  0.2478E+03
     74.522  0.4343E+01  0.2479E+03
     74.551  0.5395E+01  0.2481E+03
     74.579  0.4078E+01  0.2482E+03
     74.608  0.4582E+01  0.2483E+03
     74.637  0.4730E+01  0.2485E+03
     74.665  0.4820E+01  0.2486E+03
     74.694  0.5008E+01  0.2488E+03
     74.723  0.4479E+01  0.2489E+03
     74.751  0.4173E+01  0.2490E+03
     74.780  0.4862E+01  0.2491E+03
     74.808  0.4863E+01  0.2493E+03
     74.837  0.4535E+01  0.2494E+03
     74.866  0.4403E+01  0.2495E+03
     74.894  0.4541E+01  0.2497E+03
     74.923  0.5143E+01  0.2498E+03
     74.952  0.4162E+01  0.2499E+03
     74.980  0.4937E+01  0.2501E+03
     75.009  0.5265E+01  0.2502E+03
     75.038  0.5096E+01  0.2504E+03
     75.066  0.4454E+01  0.2505E+03
     75.095  0.4448E+01  0.2506E+03
     75.123  0.4214E+01  0.2508E+03
     75.152  0.4457E+01  0.2509E+03
     75.181  0.4739E+01  0.2510E+03
     75.209  0.4171E+01  0.2511E+03
     75.238  0.4434E+01  0.2513E+03
     75.267  0.4119E+01  0.2514E+03
     75.295  0.4286E+01  0.2515E+03
     75.324  0.4518E+01  0.2516E+03
     75.353  0.4781E+01  0.2518E+03
     75.381  0.5575E+01  0.2519E+03
     75.410  0.4587E+01  0.2521E+03
     75.438  0.3857E+01  0.2522E+03
     75.467  0.3998E+01  0.2523E+03
     75.496  0.4707E+01  0.2524E+03
     75.524  0.3794E+01  0.2525E+03
     75.553  0.4243E+01  0.2526E+03
     75.582  0.4890E+01  0.2528E+03
     75.610  0.5299E+01  0.2529E+03
     75.639  0.4315E+01  0.2531E+03
     75.668  0.4596E+01  0.2532E+03
     75.696  0.4625E+01  0.2533E+03
     75.725  0.3951E+01  0.2534E+03
     75.753  0.3866E+01  0.2536E+03
     75.782  0.4686E+01  0.2537E+03
     75.811  0.4546E+01  0.2538E+03
     75.839  0.4153E+01  0.2539E+03
     75.868  0.3788E+01  0.2540E+03
     75.897  0.4073E+01  0.2542E+03
     75.925  0.3837E+01  0.2543E+03
     75.954  0.4622E+01  0.2544E+03
     75.983  0.4189E+01  0.2545E+03
     76.011  0.4129E+01  0.2546E+03
     76.040  0.3938E+01  0.2548E+03
     76.068  0.4391E+01  0.2549E+03
     76.097  0.4581E+01  0.2550E+03
     76.126  0.3809E+01  0.2551E+03
     76.154  0.4086E+01  0.2552E+03
     76.183  0.4269E+01  0.2554E+03
     76.212  0.4147E+01  0.2555E+03
     76.240  0.4329E+01  0.2556E+03
     76.269  0.4254E+01  0.2557E+03
     76.298  0.4419E+01  0.2558E+03
     76.326  0.3625E+01  0.2560E+03
     76.355  0.4809E+01  0.2561E+03
     76.383  0.4263E+01  0.2562E+03
     76.412  0.3951E+01  0.2563E+03
     76.441  0.3750E+01  0.2564E+03
     76.469  0.3715E+01  0.2565E+03
     76.498  0.4321E+01  0.2567E+03
     76.527  0.3871E+01  0.2568E+03
     76.555  0.3642E+01  0.2569E+03
     76.584  0.3573E+01  0.2570E+03
     76.613  0.3620E+01  0.2571E+03
     76.641  0.3468E+01  0.2572E+03
     76.670  0.3559E+01  0.2573E+03
     76.698  0.4161E+01  0.2574E+03
     76.727  0.3146E+01  0.2575E+03
     76.756  0.3132E+01  0.2576E+03
     76.784  0.3091E+01  0.2577E+03
     76.813  0.3386E+01  0.2578E+03
     76.842  0.3243E+01  0.2579E+03
     76.870  0.4041E+01  0.2580E+03
     76.899  0.3369E+01  0.2581E+03
     76.927  0.3265E+01  0.2582E+03
     76.956  0.3647E+01  0.2583E+03
     76.985  0.4028E+01  0.2584E+03
     77.013  0.3509E+01  0.2585E+03
     77.042  0.3690E+01  0.2586E+03
     77.071  0.3451E+01  0.2587E+03
     77.099  0.3257E+01  0.2588E+03
     77.128  0.2943E+01  0.2589E+03
     77.157  0.3234E+01  0.2590E+03
     77.185  0.3089E+01  0.2591E+03
     77.214  0.3335E+01  0.2591E+03
     77.242  0.3298E+01  0.2592E+03
     77.271  0.2611E+01  0.2593E+03
     77.300  0.2782E+01  0.2594E+03
     77.328  0.3079E+01  0.2595E+03
     77.357  0.2712E+01  0.2596E+03
     77.386  0.2796E+01  0.2596E+03
     77.414  0.2567E+01  0.2597E+03
     77.443  0.3118E+01  0.2598E+03
     77.472  0.2852E+01  0.2599E+03
     77.500  0.2951E+01  0.2600E+03
     77.529  0.2464E+01  0.2600E+03
     77.557  0.2779E+01  0.2601E+03
     77.586  0.2733E+01  0.2602E+03
     77.615  0.2729E+01  0.2603E+03
     77.643  0.3281E+01  0.2604E+03
     77.672  0.3124E+01  0.2605E+03
     77.701  0.3213E+01  0.2606E+03
     77.729  0.2807E+01  0.2606E+03
     77.758  0.3466E+01  0.2607E+03
     77.787  0.2974E+01  0.2608E+03
     77.815  0.2941E+01  0.2609E+03
     77.844  0.2835E+01  0.2610E+03
     77.872  0.2125E+01  0.2610E+03
     77.901  0.2169E+01  0.2611E+03
     77.930  0.2028E+01  0.2612E+03
     77.958  0.2790E+01  0.2612E+03
     77.987  0.2824E+01  0.2613E+03
     78.016  0.2505E+01  0.2614E+03
     78.044  0.1995E+01  0.2615E+03
     78.073  0.2279E+01  0.2615E+03
     78.102  0.2239E+01  0.2616E+03
     78.130  0.2110E+01  0.2616E+03
     78.159  0.2288E+01  0.2617E+03
     78.187  0.1951E+01  0.2618E+03
     78.216  0.1879E+01  0.2618E+03
     78.245  0.1912E+01  0.2619E+03
     78.273  0.2423E+01  0.2619E+03
     78.302  0.2041E+01  0.2620E+03
     78.331  0.1652E+01  0.2620E+03
     78.359  0.1949E+01  0.2621E+03
     78.388  0.1508E+01  0.2621E+03
     78.417  0.2046E+01  0.2622E+03
     78.445  0.2378E+01  0.2623E+03
     78.474  0.2327E+01  0.2623E+03
     78.502  0.2268E+01  0.2624E+03
     78.531  0.1813E+01  0.2625E+03
     78.560  0.1938E+01  0.2625E+03
     78.588  0.1872E+01  0.2626E+03
     78.617  0.1715E+01  0.2626E+03
     78.646  0.1059E+01  0.2626E+03
     78.674  0.1612E+01  0.2627E+03
     78.703  0.1106E+01  0.2627E+03
     78.732  0.1147E+01  0.2628E+03
     78.760  0.1379E+01  0.2628E+03
     78.789  0.1400E+01  0.2628E+03
     78.817  0.1104E+01  0.2629E+03
     78.846  0.1355E+01  0.2629E+03
     78.875  0.1225E+01  0.2629E+03
     78.903  0.9454E+00  0.2630E+03
     78.932  0.1103E+01  0.2630E+03
     78.961  0.1021E+01  0.2630E+03
     78.989  0.9158E+00  0.2631E+03
     79.018  0.6358E+00  0.2631E+03
     79.047  0.6525E+00  0.2631E+03
     79.075  0.8851E+00  0.2631E+03
     79.104  0.1164E+01  0.2632E+03
     79.132  0.1013E+01  0.2632E+03
     79.161  0.8248E+00  0.2632E+03
     79.190  0.9693E+00  0.2632E+03
     79.218  0.7668E+00  0.2633E+03
     79.247  0.7623E+00  0.2633E+03
     79.276  0.6654E+00  0.2633E+03
     79.304  0.5321E+00  0.2633E+03
     79.333  0.6940E+00  0.2633E+03
     79.362  0.5054E+00  0.2633E+03
     79.390  0.5667E+00  0.2634E+03
     79.419  0.8579E+00  0.2634E+03
     79.447  0.1068E+01  0.2634E+03
     79.476  0.9287E+00  0.2634E+03
     79.505  0.8902E+00  0.2635E+03
     79.533  0.8202E+00  0.2635E+03
     79.562  0.6324E+00  0.2635E+03
     79.591  0.6307E+00  0.2635E+03
     79.619  0.7547E+00  0.2635E+03
     79.648  0.4231E+00  0.2636E+03
     79.677  0.8998E+00  0.2636E+03
     79.705  0.5910E+00  0.2636E+03
     79.734  0.7533E+00  0.2636E+03
     79.762  0.8839E+00  0.2637E+03
     79.791  0.8565E+00  0.2637E+03
     79.820  0.4577E+00  0.2637E+03
     79.848  0.6579E+00  0.2637E+03
     79.877  0.6500E+00  0.2637E+03
     79.906  0.5706E+00  0.2637E+03
     79.934  0.3953E+00  0.2638E+03
     79.963  0.5254E+00  0.2638E+03
     79.992  0.4985E+00  0.2638E+03
     80.020  0.4854E+00  0.2638E+03
     80.049  0.4046E+00  0.2638E+03
     80.077  0.3425E+00  0.2638E+03
     80.106  0.6684E+00  0.2638E+03
     80.135  0.4650E+00  0.2639E+03
     80.163  0.3857E+00  0.2639E+03
     80.192  0.4318E+00  0.2639E+03
     80.221  0.5202E+00  0.2639E+03
     80.249  0.3835E+00  0.2639E+03
     80.278  0.2091E+00  0.2639E+03
     80.306  0.2040E+00  0.2639E+03
     80.335  0.1854E+00  0.2639E+03
     80.364  0.2252E+00  0.2639E+03
     80.392  0.3225E+00  0.2639E+03
     80.421  0.2053E+00  0.2639E+03
     80.450  0.1672E+00  0.2639E+03
     80.478  0.9476E-01  0.2639E+03
     80.507  0.8938E-01  0.2639E+03
     80.536  0.1644E+00  0.2640E+03
     80.564  0.2486E+00  0.2640E+03
     80.593  0.1179E+00  0.2640E+03
     80.621  0.4602E-01  0.2640E+03
     80.650  0.2008E-01  0.2640E+03
     80.679  0.1494E+00  0.2640E+03
     80.707  0.3364E-01  0.2640E+03
     80.736  0.4808E-01  0.2640E+03
     80.765  0.9629E-01  0.2640E+03
     80.793  0.2030E-01  0.2640E+03
     80.822  0.2272E-01  0.2640E+03
     80.851  0.1259E-01  0.2640E+03
     80.879  0.1108E-01  0.2640E+03
     80.908  0.6358E-01  0.2640E+03
     80.936  0.1575E-01  0.2640E+03
     80.965  0.5678E-01  0.2640E+03
     80.994  0.8101E-02  0.2640E+03
     81.022  0.7939E-07  0.2640E+03
     81.051  0.8387E-17  0.2640E+03
     81.080  0.1009E-05  0.2640E+03
     81.108  0.2406E-01  0.2640E+03
     81.137  0.4772E-01  0.2640E+03
     81.166  0.3762E-02  0.2640E+03
     81.194  0.2185E-06  0.2640E+03
     81.223  0.1731E-01  0.2640E+03
     81.251  0.3305E-01  0.2640E+03
     81.280  0.1297E-04  0.2640E+03
     81.309  0.3276E-01  0.2640E+03
     81.337  0.1759E-01  0.2640E+03
     81.366  0.2300E-06  0.2640E+03
     81.395  0.2796E-17  0.2640E+03
     81.423  0.5820E-06  0.2640E+03
     81.452  0.2153E-01  0.2640E+03
     81.481  0.3069E-01  0.2640E+03
     81.509  0.2520E-01  0.2640E+03
     81.538  0.2321E-01  0.2640E+03
     81.566  0.1052E-03  0.2640E+03
     81.595  0.2864E-12  0.2640E+03
     81.624  0.4604E-06  0.2640E+03
     81.652  0.2050E-01  0.2640E+03
     81.681  0.2986E-01  0.2640E+03
     81.710  0.3438E-05  0.2640E+03
     81.738  0.4479E-02  0.2640E+03
     81.767  0.4571E-01  0.2640E+03
     81.796  0.1734E-03  0.2640E+03
     81.824  0.3328E-02  0.2640E+03
     81.853  0.2181E-01  0.2640E+03
     81.881  0.4222E-04  0.2640E+03
     81.910  0.7170E-04  0.2640E+03
     81.939  0.4369E-01  0.2640E+03
     81.967  0.3131E-01  0.2640E+03
     81.996  0.4764E-03  0.2640E+03
     82.025  0.2037E-06  0.2640E+03
     82.053  0.9986E-02  0.2640E+03
     82.082  0.1519E-01  0.2640E+03
     82.111  0.1473E-01  0.2640E+03
     82.139  0.3563E-01  0.2640E+03
     82.168  0.1157E-04  0.2640E+03
     82.196  0.3206E-03  0.2640E+03
     82.225  0.2405E-01  0.2640E+03
     82.254  0.2319E-01  0.2640E+03
     82.282  0.2813E-02  0.2640E+03
     82.311  0.1001E-01  0.2640E+03
     82.340  0.1592E-01  0.2640E+03
     82.368  0.3445E-02  0.2640E+03
     82.397  0.3677E-05  0.2640E+03
     82.426  0.1474E-14  0.2640E+03
     82.454  0.0000E+00  0.2640E+03
     82.483  0.0000E+00  0.2640E+03
     82.511  0.0000E+00  0.2640E+03
     82.540  0.0000E+00  0.2640E+03
     82.569  0.0000E+00  0.2640E+03
     82.597  0.0000E+00  0.2640E+03
     82.626  0.0000E+00  0.2640E+03
     82.655  0.0000E+00  0.2640E+03
     82.683  0.0000E+00  0.2640E+03
     82.712  0.0000E+00  0.2640E+03
     82.741  0.0000E+00  0.2640E+03
     82.769  0.0000E+00  0.2640E+03
     82.798  0.0000E+00  0.2640E+03
     82.826  0.0000E+00  0.2640E+03
     82.855  0.0000E+00  0.2640E+03
     82.884  0.0000E+00  0.2640E+03
     82.912  0.0000E+00  0.2640E+03
     82.941  0.0000E+00  0.2640E+03
     82.970  0.0000E+00  0.2640E+03
     82.998  0.0000E+00  0.2640E+03
     83.027  0.0000E+00  0.2640E+03
     83.056  0.0000E+00  0.2640E+03
     83.084  0.0000E+00  0.2640E+03
     83.113  0.0000E+00  0.2640E+03
     83.141  0.0000E+00  0.2640E+03
     83.170  0.0000E+00  0.2640E+03
     83.199  0.0000E+00  0.2640E+03
     83.227  0.0000E+00  0.2640E+03
     83.256  0.0000E+00  0.2640E+03
     83.285  0.0000E+00  0.2640E+03
     83.313  0.0000E+00  0.2640E+03
     83.342  0.0000E+00  0.2640E+03
     83.371  0.0000E+00  0.2640E+03
     83.399  0.0000E+00  0.2640E+03
     83.428  0.0000E+00  0.2640E+03
     83.456  0.0000E+00  0.2640E+03
     83.485  0.0000E+00  0.2640E+03
     83.514  0.0000E+00  0.2640E+03
     83.542  0.0000E+00  0.2640E+03
     83.571  0.0000E+00  0.2640E+03
     83.600  0.0000E+00  0.2640E+03
     83.628  0.0000E+00  0.2640E+03
     83.657  0.0000E+00  0.2640E+03
     83.685  0.0000E+00  0.2640E+03
     83.714  0.0000E+00  0.2640E+03
     83.743  0.0000E+00  0.2640E+03
     83.771  0.0000E+00  0.2640E+03
     83.800  0.0000E+00  0.2640E+03
     83.829  0.0000E+00  0.2640E+03
     83.857  0.0000E+00  0.2640E+03
     83.886  0.0000E+00  0.2640E+03
     83.915  0.0000E+00  0.2640E+03
     83.943  0.0000E+00  0.2640E+03
     83.972  0.0000E+00  0.2640E+03
     84.000  0.0000E+00  0.2640E+03
     84.029  0.0000E+00  0.2640E+03
     84.058  0.0000E+00  0.2640E+03
     84.086  0.0000E+00  0.2640E+03
     84.115  0.0000E+00  0.2640E+03
     84.144  0.0000E+00  0.2640E+03
     84.172  0.0000E+00  0.2640E+03
     84.201  0.0000E+00  0.2640E+03
     84.230  0.0000E+00  0.2640E+03
     84.258  0.0000E+00  0.2640E+03
     84.287  0.0000E+00  0.2640E+03
     84.315  0.0000E+00  0.2640E+03
     84.344  0.0000E+00  0.2640E+03
     84.373  0.0000E+00  0.2640E+03
     84.401  0.0000E+00  0.2640E+03
     84.430  0.0000E+00  0.2640E+03
     84.459  0.0000E+00  0.2640E+03
     84.487  0.0000E+00  0.2640E+03
     84.516  0.0000E+00  0.2640E+03
     84.545  0.0000E+00  0.2640E+03
     84.573  0.0000E+00  0.2640E+03
     84.602  0.0000E+00  0.2640E+03
     84.630  0.0000E+00  0.2640E+03
     84.659  0.0000E+00  0.2640E+03
     84.688  0.0000E+00  0.2640E+03
     84.716  0.0000E+00  0.2640E+03
     84.745  0.0000E+00  0.2640E+03
     84.774  0.0000E+00  0.2640E+03
     84.802  0.0000E+00  0.2640E+03
     84.831  0.0000E+00  0.2640E+03
     84.860  0.0000E+00  0.2640E+03
     84.888  0.0000E+00  0.2640E+03
     84.917  0.0000E+00  0.2640E+03
     84.945  0.0000E+00  0.2640E+03
     84.974  0.0000E+00  0.2640E+03
     85.003  0.0000E+00  0.2640E+03
     85.031  0.0000E+00  0.2640E+03
     85.060  0.0000E+00  0.2640E+03
     85.089  0.0000E+00  0.2640E+03
     85.117  0.0000E+00  0.2640E+03
     85.146  0.0000E+00  0.2640E+03
     85.175  0.0000E+00  0.2640E+03
     85.203  0.0000E+00  0.2640E+03
     85.232  0.0000E+00  0.2640E+03
     85.260  0.0000E+00  0.2640E+03
     85.289  0.0000E+00  0.2640E+03
     85.318  0.0000E+00  0.2640E+03
     85.346  0.0000E+00  0.2640E+03
     85.375  0.0000E+00  0.2640E+03
     85.404  0.0000E+00  0.2640E+03
     85.432  0.0000E+00  0.2640E+03
     85.461  0.0000E+00  0.2640E+03
     85.490  0.0000E+00  0.2640E+03
     85.518  0.0000E+00  0.2640E+03
     85.547  0.0000E+00  0.2640E+03
     85.575  0.0000E+00  0.2640E+03
     85.604  0.0000E+00  0.2640E+03
     85.633  0.0000E+00  0.2640E+03
     85.661  0.0000E+00  0.2640E+03
     85.690  0.0000E+00  0.2640E+03
     85.719  0.0000E+00  0.2640E+03
     85.747  0.0000E+00  0.2640E+03
     85.776  0.0000E+00  0.2640E+03
     85.805  0.0000E+00  0.2640E+03
     85.833  0.0000E+00  0.2640E+03
     85.862  0.0000E+00  0.2640E+03
     85.890  0.0000E+00  0.2640E+03
     85.919  0.0000E+00  0.2640E+03
     85.948  0.0000E+00  0.2640E+03
     85.976  0.0000E+00  0.2640E+03
     86.005  0.0000E+00  0.2640E+03
     86.034  0.0000E+00  0.2640E+03
     86.062  0.0000E+00  0.2640E+03
     86.091  0.0000E+00  0.2640E+03
     86.120  0.0000E+00  0.2640E+03
     86.148  0.0000E+00  0.2640E+03
     86.177  0.0000E+00  0.2640E+03
     86.205  0.0000E+00  0.2640E+03
     86.234  0.0000E+00  0.2640E+03
     86.263  0.0000E+00  0.2640E+03
     86.291  0.0000E+00  0.2640E+03
     86.320  0.0000E+00  0.2640E+03
     86.349  0.0000E+00  0.2640E+03
     86.377  0.0000E+00  0.2640E+03
     86.406  0.0000E+00  0.2640E+03
     86.435  0.0000E+00  0.2640E+03
     86.463  0.0000E+00  0.2640E+03
     86.492  0.0000E+00  0.2640E+03
     86.520  0.0000E+00  0.2640E+03
     86.549  0.0000E+00  0.2640E+03
     86.578  0.0000E+00  0.2640E+03
     86.606  0.0000E+00  0.2640E+03
     86.635  0.0000E+00  0.2640E+03
     86.664  0.0000E+00  0.2640E+03
     86.692  0.0000E+00  0.2640E+03
     86.721  0.0000E+00  0.2640E+03
     86.750  0.0000E+00  0.2640E+03
     86.778  0.0000E+00  0.2640E+03
     86.807  0.0000E+00  0.2640E+03
     86.835  0.0000E+00  0.2640E+03
     86.864  0.0000E+00  0.2640E+03
     86.893  0.0000E+00  0.2640E+03
     86.921  0.0000E+00  0.2640E+03
     86.950  0.0000E+00  0.2640E+03
     86.979  0.0000E+00  0.2640E+03
     87.007  0.0000E+00  0.2640E+03
     87.036  0.0000E+00  0.2640E+03
     87.065  0.0000E+00  0.2640E+03
     87.093  0.0000E+00  0.2640E+03
     87.122  0.0000E+00  0.2640E+03
     87.150  0.0000E+00  0.2640E+03
     87.179  0.0000E+00  0.2640E+03
     87.208  0.0000E+00  0.2640E+03
     87.236  0.0000E+00  0.2640E+03
     87.265  0.0000E+00  0.2640E+03
     87.294  0.0000E+00  0.2640E+03
     87.322  0.0000E+00  0.2640E+03
     87.351  0.0000E+00  0.2640E+03
     87.379  0.0000E+00  0.2640E+03
     87.408  0.0000E+00  0.2640E+03
     87.437  0.0000E+00  0.2640E+03
     87.465  0.0000E+00  0.2640E+03
     87.494  0.0000E+00  0.2640E+03
     87.523  0.0000E+00  0.2640E+03
     87.551  0.0000E+00  0.2640E+03
