   2   2   0   0
  0.3953030E+02  0.2467000E-09  0.2467000E-09  0.1500000E-08  0.5000000E-15
  1.000000000000000E-004
  CAR 
 Dielectric                              
     83.89090537    -26.79359384 4000     -2.35387396      1.00000000
    -26.794  0.0000E+00  0.0000E+00
    -26.766  0.0000E+00  0.0000E+00
    -26.738  0.0000E+00  0.0000E+00
    -26.711  0.0000E+00  0.0000E+00
    -26.683  0.0000E+00  0.0000E+00
    -26.655  0.0000E+00  0.0000E+00
    -26.628  0.0000E+00  0.0000E+00
    -26.600  0.0000E+00  0.0000E+00
    -26.572  0.0000E+00  0.0000E+00
    -26.544  0.0000E+00  0.0000E+00
    -26.517  0.0000E+00  0.0000E+00
    -26.489  0.0000E+00  0.0000E+00
    -26.461  0.0000E+00  0.0000E+00
    -26.434  0.0000E+00  0.0000E+00
    -26.406  0.0000E+00  0.0000E+00
    -26.378  0.0000E+00  0.0000E+00
    -26.351  0.0000E+00  0.0000E+00
    -26.323  0.0000E+00  0.0000E+00
    -26.295  0.0000E+00  0.0000E+00
    -26.268  0.0000E+00  0.0000E+00
    -26.240  0.0000E+00  0.0000E+00
    -26.212  0.0000E+00  0.0000E+00
    -26.185  0.0000E+00  0.0000E+00
    -26.157  0.0000E+00  0.0000E+00
    -26.129  0.0000E+00  0.0000E+00
    -26.102  0.0000E+00  0.0000E+00
    -26.074  0.0000E+00  0.0000E+00
    -26.046  0.0000E+00  0.0000E+00
    -26.019  0.0000E+00  0.0000E+00
    -25.991  0.0000E+00  0.0000E+00
    -25.963  0.0000E+00  0.0000E+00
    -25.936  0.0000E+00  0.0000E+00
    -25.908  0.0000E+00  0.0000E+00
    -25.880  0.0000E+00  0.0000E+00
    -25.853  0.0000E+00  0.0000E+00
    -25.825  0.0000E+00  0.0000E+00
    -25.797  0.0000E+00  0.0000E+00
    -25.770  0.0000E+00  0.0000E+00
    -25.742  0.0000E+00  0.0000E+00
    -25.714  0.0000E+00  0.0000E+00
    -25.686  0.0000E+00  0.0000E+00
    -25.659  0.0000E+00  0.0000E+00
    -25.631  0.0000E+00  0.0000E+00
    -25.603  0.0000E+00  0.0000E+00
    -25.576  0.0000E+00  0.0000E+00
    -25.548  0.0000E+00  0.0000E+00
    -25.520  0.0000E+00  0.0000E+00
    -25.493  0.0000E+00  0.0000E+00
    -25.465  0.0000E+00  0.0000E+00
    -25.437  0.0000E+00  0.0000E+00
    -25.410  0.0000E+00  0.0000E+00
    -25.382  0.0000E+00  0.0000E+00
    -25.354  0.0000E+00  0.0000E+00
    -25.327  0.0000E+00  0.0000E+00
    -25.299  0.0000E+00  0.0000E+00
    -25.271  0.0000E+00  0.0000E+00
    -25.244  0.0000E+00  0.0000E+00
    -25.216  0.0000E+00  0.0000E+00
    -25.188  0.0000E+00  0.0000E+00
    -25.161  0.0000E+00  0.0000E+00
    -25.133  0.0000E+00  0.0000E+00
    -25.105  0.0000E+00  0.0000E+00
    -25.078  0.0000E+00  0.0000E+00
    -25.050  0.0000E+00  0.0000E+00
    -25.022  0.0000E+00  0.0000E+00
    -24.995  0.0000E+00  0.0000E+00
    -24.967  0.0000E+00  0.0000E+00
    -24.939  0.0000E+00  0.0000E+00
    -24.911  0.0000E+00  0.0000E+00
    -24.884  0.0000E+00  0.0000E+00
    -24.856  0.0000E+00  0.0000E+00
    -24.828  0.0000E+00  0.0000E+00
    -24.801  0.0000E+00  0.0000E+00
    -24.773  0.0000E+00  0.0000E+00
    -24.745  0.0000E+00  0.0000E+00
    -24.718  0.0000E+00  0.0000E+00
    -24.690  0.0000E+00  0.0000E+00
    -24.662  0.0000E+00  0.0000E+00
    -24.635  0.0000E+00  0.0000E+00
    -24.607  0.0000E+00  0.0000E+00
    -24.579  0.0000E+00  0.0000E+00
    -24.552  0.0000E+00  0.0000E+00
    -24.524  0.0000E+00  0.0000E+00
    -24.496  0.0000E+00  0.0000E+00
    -24.469  0.0000E+00  0.0000E+00
    -24.441  0.0000E+00  0.0000E+00
    -24.413  0.0000E+00  0.0000E+00
    -24.386  0.0000E+00  0.0000E+00
    -24.358  0.0000E+00  0.0000E+00
    -24.330  0.0000E+00  0.0000E+00
    -24.303  0.0000E+00  0.0000E+00
    -24.275  0.0000E+00  0.0000E+00
    -24.247  0.0000E+00  0.0000E+00
    -24.220  0.0000E+00  0.0000E+00
    -24.192  0.0000E+00  0.0000E+00
    -24.164  0.0000E+00  0.0000E+00
    -24.137  0.0000E+00  0.0000E+00
    -24.109  0.0000E+00  0.0000E+00
    -24.081  0.0000E+00  0.0000E+00
    -24.053  0.0000E+00  0.0000E+00
    -24.026  0.0000E+00  0.0000E+00
    -23.998  0.0000E+00  0.0000E+00
    -23.970  0.0000E+00  0.0000E+00
    -23.943  0.0000E+00  0.0000E+00
    -23.915  0.0000E+00  0.0000E+00
    -23.887  0.0000E+00  0.0000E+00
    -23.860  0.0000E+00  0.0000E+00
    -23.832  0.0000E+00  0.0000E+00
    -23.804  0.0000E+00  0.0000E+00
    -23.777  0.0000E+00  0.0000E+00
    -23.749  0.0000E+00  0.0000E+00
    -23.721  0.0000E+00  0.0000E+00
    -23.694  0.0000E+00  0.0000E+00
    -23.666  0.0000E+00  0.0000E+00
    -23.638  0.0000E+00  0.0000E+00
    -23.611  0.0000E+00  0.0000E+00
    -23.583  0.0000E+00  0.0000E+00
    -23.555  0.0000E+00  0.0000E+00
    -23.528  0.0000E+00  0.0000E+00
    -23.500  0.0000E+00  0.0000E+00
    -23.472  0.0000E+00  0.0000E+00
    -23.445  0.0000E+00  0.0000E+00
    -23.417  0.0000E+00  0.0000E+00
    -23.389  0.0000E+00  0.0000E+00
    -23.362  0.0000E+00  0.0000E+00
    -23.334  0.0000E+00  0.0000E+00
    -23.306  0.0000E+00  0.0000E+00
    -23.278  0.0000E+00  0.0000E+00
    -23.251  0.0000E+00  0.0000E+00
    -23.223  0.0000E+00  0.0000E+00
    -23.195  0.0000E+00  0.0000E+00
    -23.168  0.0000E+00  0.0000E+00
    -23.140  0.0000E+00  0.0000E+00
    -23.112  0.0000E+00  0.0000E+00
    -23.085  0.0000E+00  0.0000E+00
    -23.057  0.0000E+00  0.0000E+00
    -23.029  0.0000E+00  0.0000E+00
    -23.002  0.0000E+00  0.0000E+00
    -22.974  0.0000E+00  0.0000E+00
    -22.946  0.0000E+00  0.0000E+00
    -22.919  0.0000E+00  0.0000E+00
    -22.891  0.0000E+00  0.0000E+00
    -22.863  0.0000E+00  0.0000E+00
    -22.836  0.0000E+00  0.0000E+00
    -22.808  0.0000E+00  0.0000E+00
    -22.780  0.0000E+00  0.0000E+00
    -22.753  0.0000E+00  0.0000E+00
    -22.725  0.0000E+00  0.0000E+00
    -22.697  0.0000E+00  0.0000E+00
    -22.670  0.0000E+00  0.0000E+00
    -22.642  0.0000E+00  0.0000E+00
    -22.614  0.0000E+00  0.0000E+00
    -22.587  0.0000E+00  0.0000E+00
    -22.559  0.0000E+00  0.0000E+00
    -22.531  0.0000E+00  0.0000E+00
    -22.503  0.0000E+00  0.0000E+00
    -22.476  0.0000E+00  0.0000E+00
    -22.448  0.0000E+00  0.0000E+00
    -22.420  0.0000E+00  0.0000E+00
    -22.393  0.0000E+00  0.0000E+00
    -22.365  0.0000E+00  0.0000E+00
    -22.337  0.0000E+00  0.0000E+00
    -22.310  0.0000E+00  0.0000E+00
    -22.282  0.0000E+00  0.0000E+00
    -22.254  0.0000E+00  0.0000E+00
    -22.227  0.0000E+00  0.0000E+00
    -22.199  0.0000E+00  0.0000E+00
    -22.171  0.0000E+00  0.0000E+00
    -22.144  0.0000E+00  0.0000E+00
    -22.116  0.0000E+00  0.0000E+00
    -22.088  0.0000E+00  0.0000E+00
    -22.061  0.0000E+00  0.0000E+00
    -22.033  0.0000E+00  0.0000E+00
    -22.005  0.0000E+00  0.0000E+00
    -21.978  0.0000E+00  0.0000E+00
    -21.950  0.0000E+00  0.0000E+00
    -21.922  0.0000E+00  0.0000E+00
    -21.895  0.0000E+00  0.0000E+00
    -21.867  0.0000E+00  0.0000E+00
    -21.839  0.0000E+00  0.0000E+00
    -21.812  0.3434E-13  0.9504E-15
    -21.784  0.2824E-04  0.7817E-06
    -21.756  0.7744E-01  0.2144E-02
    -21.729  0.2902E+00  0.1018E-01
    -21.701  0.2941E+00  0.1832E-01
    -21.673  0.3291E+00  0.2743E-01
    -21.645  0.3426E+00  0.3691E-01
    -21.618  0.2271E+00  0.4319E-01
    -21.590  0.3932E+00  0.5408E-01
    -21.562  0.1968E+00  0.5952E-01
    -21.535  0.4225E+00  0.7122E-01
    -21.507  0.2165E+00  0.7721E-01
    -21.479  0.4090E+00  0.8853E-01
    -21.452  0.2337E+00  0.9500E-01
    -21.424  0.2604E+00  0.1022E+00
    -21.396  0.4406E+00  0.1144E+00
    -21.369  0.1986E+00  0.1199E+00
    -21.341  0.3358E+00  0.1292E+00
    -21.313  0.3886E+00  0.1400E+00
    -21.286  0.2711E+00  0.1475E+00
    -21.258  0.1653E+00  0.1520E+00
    -21.230  0.4919E+00  0.1656E+00
    -21.203  0.2565E+00  0.1727E+00
    -21.175  0.2369E+00  0.1793E+00
    -21.147  0.3617E+00  0.1893E+00
    -21.120  0.3792E+00  0.1998E+00
    -21.092  0.2164E+00  0.2058E+00
    -21.064  0.2660E+00  0.2132E+00
    -21.037  0.3968E+00  0.2241E+00
    -21.009  0.4216E+00  0.2358E+00
    -20.981  0.1875E+00  0.2410E+00
    -20.954  0.1487E+00  0.2451E+00
    -20.926  0.5480E+00  0.2603E+00
    -20.898  0.2319E+00  0.2667E+00
    -20.870  0.3372E+00  0.2760E+00
    -20.843  0.1958E+00  0.2815E+00
    -20.815  0.3414E+00  0.2909E+00
    -20.787  0.5028E+00  0.3048E+00
    -20.760  0.1484E+00  0.3089E+00
    -20.732  0.3413E+00  0.3184E+00
    -20.704  0.1933E+00  0.3237E+00
    -20.677  0.4098E+00  0.3351E+00
    -20.649  0.4596E+00  0.3478E+00
    -20.621  0.1799E+00  0.3528E+00
    -20.594  0.2563E+00  0.3599E+00
    -20.566  0.1924E+00  0.3652E+00
    -20.538  0.5479E+00  0.3803E+00
    -20.511  0.2933E+00  0.3885E+00
    -20.483  0.4176E+00  0.4000E+00
    -20.455  0.5670E-01  0.4016E+00
    -20.428  0.2540E+00  0.4086E+00
    -20.400  0.4653E+00  0.4215E+00
    -20.372  0.4117E+00  0.4329E+00
    -20.345  0.2181E+00  0.4389E+00
    -20.317  0.4311E+00  0.4509E+00
    -20.289  0.5048E-01  0.4523E+00
    -20.262  0.2945E+00  0.4604E+00
    -20.234  0.5478E+00  0.4756E+00
    -20.206  0.3731E+00  0.4859E+00
    -20.179  0.2122E+00  0.4918E+00
    -20.151  0.2294E+00  0.4981E+00
    -20.123  0.2857E+00  0.5060E+00
    -20.096  0.2864E+00  0.5140E+00
    -20.068  0.4677E+00  0.5269E+00
    -20.040  0.3779E+00  0.5374E+00
    -20.012  0.3131E+00  0.5460E+00
    -19.985  0.9615E-01  0.5487E+00
    -19.957  0.3248E+00  0.5577E+00
    -19.929  0.3350E+00  0.5669E+00
    -19.902  0.4562E+00  0.5796E+00
    -19.874  0.2645E+00  0.5869E+00
    -19.846  0.3666E+00  0.5970E+00
    -19.819  0.3371E+00  0.6064E+00
    -19.791  0.6914E-01  0.6083E+00
    -19.763  0.2585E+00  0.6154E+00
    -19.736  0.6540E+00  0.6335E+00
    -19.708  0.2569E+00  0.6407E+00
    -19.680  0.2810E+00  0.6484E+00
    -19.653  0.3521E+00  0.6582E+00
    -19.625  0.2136E+00  0.6641E+00
    -19.597  0.2413E+00  0.6708E+00
    -19.570  0.1820E+00  0.6758E+00
    -19.542  0.6759E+00  0.6945E+00
    -19.514  0.3019E+00  0.7029E+00
    -19.487  0.3167E+00  0.7116E+00
    -19.459  0.2161E+00  0.7176E+00
    -19.431  0.2411E+00  0.7243E+00
    -19.404  0.3360E+00  0.7336E+00
    -19.376  0.2983E+00  0.7418E+00
    -19.348  0.3617E+00  0.7519E+00
    -19.321  0.5073E+00  0.7659E+00
    -19.293  0.2916E+00  0.7740E+00
    -19.265  0.2073E+00  0.7797E+00
    -19.237  0.2539E+00  0.7867E+00
    -19.210  0.1670E+00  0.7914E+00
    -19.182  0.4464E+00  0.8037E+00
    -19.154  0.4892E+00  0.8173E+00
    -19.127  0.1887E+00  0.8225E+00
    -19.099  0.4326E+00  0.8345E+00
    -19.071  0.3797E+00  0.8450E+00
    -19.044  0.1016E+00  0.8478E+00
    -19.016  0.3283E+00  0.8569E+00
    -18.988  0.7421E-01  0.8589E+00
    -18.961  0.6032E+00  0.8756E+00
    -18.933  0.5651E+00  0.8913E+00
    -18.905  0.1485E+00  0.8954E+00
    -18.878  0.3375E+00  0.9047E+00
    -18.850  0.2389E+00  0.9113E+00
    -18.822  0.3389E+00  0.9207E+00
    -18.795  0.1335E+00  0.9244E+00
    -18.767  0.3636E+00  0.9345E+00
    -18.739  0.3835E+00  0.9451E+00
    -18.712  0.5205E+00  0.9595E+00
    -18.684  0.4416E+00  0.9717E+00
    -18.656  0.1264E+00  0.9752E+00
    -18.629  0.2576E+00  0.9823E+00
    -18.601  0.2886E+00  0.9903E+00
    -18.573  0.2552E+00  0.9974E+00
    -18.546  0.2674E+00  0.1005E+01
    -18.518  0.6286E+00  0.1022E+01
    -18.490  0.2157E+00  0.1028E+01
    -18.463  0.4539E+00  0.1041E+01
    -18.435  0.3674E+00  0.1051E+01
    -18.407  0.1871E+00  0.1056E+01
    -18.379  0.1599E+00  0.1060E+01
    -18.352  0.2629E+00  0.1068E+01
    -18.324  0.3673E+00  0.1078E+01
    -18.296  0.4215E+00  0.1090E+01
    -18.269  0.5722E+00  0.1105E+01
    -18.241  0.1976E+00  0.1111E+01
    -18.213  0.2479E+00  0.1118E+01
    -18.186  0.4258E+00  0.1130E+01
    -18.158  0.2875E+00  0.1138E+01
    -18.130  0.7874E-01  0.1140E+01
    -18.103  0.2486E+00  0.1147E+01
    -18.075  0.5660E+00  0.1162E+01
    -18.047  0.4440E+00  0.1175E+01
    -18.020  0.4304E+00  0.1186E+01
    -17.992  0.3453E+00  0.1196E+01
    -17.964  0.4238E-01  0.1197E+01
    -17.937  0.4833E+00  0.1211E+01
    -17.909  0.2419E+00  0.1217E+01
    -17.881  0.2659E+00  0.1225E+01
    -17.854  0.1003E+00  0.1227E+01
    -17.826  0.7023E+00  0.1247E+01
    -17.798  0.3658E+00  0.1257E+01
    -17.771  0.3723E+00  0.1267E+01
    -17.743  0.4589E+00  0.1280E+01
    -17.715  0.1563E+00  0.1284E+01
    -17.688  0.1652E+00  0.1289E+01
    -17.660  0.3769E+00  0.1299E+01
    -17.632  0.2973E+00  0.1307E+01
    -17.604  0.3015E+00  0.1316E+01
    -17.577  0.4317E+00  0.1328E+01
    -17.549  0.5582E+00  0.1343E+01
    -17.521  0.2633E+00  0.1351E+01
    -17.494  0.2822E+00  0.1358E+01
    -17.466  0.5038E+00  0.1372E+01
    -17.438  0.1065E+00  0.1375E+01
    -17.411  0.1944E+00  0.1381E+01
    -17.383  0.2973E+00  0.1389E+01
    -17.355  0.4467E+00  0.1401E+01
    -17.328  0.5630E+00  0.1417E+01
    -17.300  0.2197E+00  0.1423E+01
    -17.272  0.5256E+00  0.1437E+01
    -17.245  0.2740E+00  0.1445E+01
    -17.217  0.2604E+00  0.1452E+01
    -17.189  0.4642E+00  0.1465E+01
    -17.162  0.1436E+00  0.1469E+01
    -17.134  0.1951E+00  0.1474E+01
    -17.106  0.2968E+00  0.1483E+01
    -17.079  0.7641E+00  0.1504E+01
    -17.051  0.4531E+00  0.1516E+01
    -17.023  0.1772E+00  0.1521E+01
    -16.996  0.4618E+00  0.1534E+01
    -16.968  0.2995E+00  0.1542E+01
    -16.940  0.2424E+00  0.1549E+01
    -16.913  0.4893E+00  0.1563E+01
    -16.885  0.1113E+00  0.1566E+01
    -16.857  0.2011E+00  0.1571E+01
    -16.829  0.7225E+00  0.1591E+01
    -16.802  0.6258E+00  0.1609E+01
    -16.774  0.2856E+00  0.1616E+01
    -16.746  0.3242E+00  0.1625E+01
    -16.719  0.4002E+00  0.1636E+01
    -16.691  0.4067E+00  0.1648E+01
    -16.663  0.2539E+00  0.1655E+01
    -16.636  0.3661E+00  0.1665E+01
    -16.608  0.2376E+00  0.1671E+01
    -16.580  0.7106E+00  0.1691E+01
    -16.553  0.4866E+00  0.1705E+01
    -16.525  0.8395E+00  0.1728E+01
    -16.497  0.4216E+00  0.1740E+01
    -16.470  0.5755E+00  0.1755E+01
    -16.442  0.2587E+00  0.1763E+01
    -16.414  0.4466E+00  0.1775E+01
    -16.387  0.2199E+00  0.1781E+01
    -16.359  0.1190E+00  0.1784E+01
    -16.331  0.3026E+00  0.1793E+01
    -16.304  0.7373E+00  0.1813E+01
    -16.276  0.3025E+00  0.1821E+01
    -16.248  0.2322E+00  0.1828E+01
    -16.221  0.3040E+00  0.1836E+01
    -16.193  0.3455E+00  0.1846E+01
    -16.165  0.3334E+00  0.1855E+01
    -16.138  0.6816E-03  0.1855E+01
    -16.110  0.4694E-03  0.1855E+01
    -16.082  0.9244E-01  0.1858E+01
    -16.055  0.2502E+00  0.1865E+01
    -16.027  0.6943E+00  0.1884E+01
    -15.999  0.5895E+00  0.1900E+01
    -15.971  0.1506E-01  0.1901E+01
    -15.944  0.2520E-04  0.1901E+01
    -15.916  0.6831E-01  0.1902E+01
    -15.888  0.3428E-01  0.1903E+01
    -15.861  0.5542E-02  0.1904E+01
    -15.833  0.1951E+00  0.1909E+01
    -15.805  0.2930E+00  0.1917E+01
    -15.778  0.7358E+00  0.1937E+01
    -15.750  0.1957E-02  0.1938E+01
    -15.722  0.2936E-01  0.1938E+01
    -15.695  0.7321E-01  0.1940E+01
    -15.667  0.4163E-04  0.1940E+01
    -15.639  0.3454E-01  0.1941E+01
    -15.612  0.1704E+00  0.1946E+01
    -15.584  0.1055E+00  0.1949E+01
    -15.556  0.3041E+00  0.1957E+01
    -15.529  0.3085E+00  0.1966E+01
    -15.501  0.5552E-02  0.1966E+01
    -15.473  0.1558E+00  0.1970E+01
    -15.446  0.1964E+00  0.1976E+01
    -15.418  0.2576E+00  0.1983E+01
    -15.390  0.3040E+00  0.1991E+01
    -15.363  0.3882E+00  0.2002E+01
    -15.335  0.3171E+00  0.2011E+01
    -15.307  0.5152E+00  0.2025E+01
    -15.280  0.2925E+00  0.2033E+01
    -15.252  0.1955E+00  0.2039E+01
    -15.224  0.3857E+00  0.2049E+01
    -15.196  0.5012E+00  0.2063E+01
    -15.169  0.7743E-01  0.2065E+01
    -15.141  0.8319E-01  0.2068E+01
    -15.113  0.5805E+00  0.2084E+01
    -15.086  0.6145E+00  0.2101E+01
    -15.058  0.1638E+00  0.2105E+01
    -15.030  0.3950E+00  0.2116E+01
    -15.003  0.1019E-01  0.2116E+01
    -14.975  0.2234E+00  0.2123E+01
    -14.947  0.7441E+00  0.2143E+01
    -14.920  0.4891E+00  0.2157E+01
    -14.892  0.8259E-01  0.2159E+01
    -14.864  0.1022E+00  0.2162E+01
    -14.837  0.3317E+00  0.2171E+01
    -14.809  0.5720E+00  0.2187E+01
    -14.781  0.4472E+00  0.2199E+01
    -14.754  0.3418E+00  0.2209E+01
    -14.726  0.4328E+00  0.2221E+01
    -14.698  0.3823E-01  0.2222E+01
    -14.671  0.4105E+00  0.2233E+01
    -14.643  0.8728E+00  0.2257E+01
    -14.615  0.5288E+00  0.2272E+01
    -14.588  0.5884E+00  0.2288E+01
    -14.560  0.2783E+00  0.2296E+01
    -14.532  0.4181E+00  0.2307E+01
    -14.505  0.5713E+00  0.2323E+01
    -14.477  0.2327E+00  0.2330E+01
    -14.449  0.6967E+00  0.2349E+01
    -14.422  0.5097E+00  0.2363E+01
    -14.394  0.2549E+00  0.2370E+01
    -14.366  0.1718E+00  0.2375E+01
    -14.338  0.3941E+00  0.2386E+01
    -14.311  0.5576E+00  0.2401E+01
    -14.283  0.4700E+00  0.2414E+01
    -14.255  0.3436E+00  0.2424E+01
    -14.228  0.2744E+00  0.2431E+01
    -14.200  0.4567E+00  0.2444E+01
    -14.172  0.3595E+00  0.2454E+01
    -14.145  0.1782E-01  0.2454E+01
    -14.117  0.5553E+00  0.2470E+01
    -14.089  0.7776E+00  0.2491E+01
    -14.062  0.1257E+00  0.2495E+01
    -14.034  0.1813E+00  0.2500E+01
    -14.006  0.1800E+00  0.2505E+01
    -13.979  0.5986E+00  0.2521E+01
    -13.951  0.2812E+00  0.2529E+01
    -13.923  0.3268E+00  0.2538E+01
    -13.896  0.3802E+00  0.2549E+01
    -13.868  0.4909E+00  0.2562E+01
    -13.840  0.1526E+00  0.2567E+01
    -13.813  0.2583E+00  0.2574E+01
    -13.785  0.1948E+00  0.2579E+01
    -13.757  0.4948E+00  0.2593E+01
    -13.730  0.4991E+00  0.2607E+01
    -13.702  0.2212E+00  0.2613E+01
    -13.674  0.3694E+00  0.2623E+01
    -13.647  0.2723E+00  0.2631E+01
    -13.619  0.1418E+00  0.2634E+01
    -13.591  0.1382E+00  0.2638E+01
    -13.563  0.6131E+00  0.2655E+01
    -13.536  0.4166E+00  0.2667E+01
    -13.508  0.3326E+00  0.2676E+01
    -13.480  0.4646E-01  0.2677E+01
    -13.453  0.3696E+00  0.2687E+01
    -13.425  0.3422E+00  0.2697E+01
    -13.397  0.1989E+00  0.2702E+01
    -13.370  0.2876E+00  0.2710E+01
    -13.342  0.3864E+00  0.2721E+01
    -13.314  0.4267E+00  0.2733E+01
    -13.287  0.3160E+00  0.2742E+01
    -13.259  0.1403E+00  0.2746E+01
    -13.231  0.1700E+00  0.2750E+01
    -13.204  0.1974E+00  0.2756E+01
    -13.176  0.3731E+00  0.2766E+01
    -13.148  0.5984E+00  0.2783E+01
    -13.121  0.1578E+00  0.2787E+01
    -13.093  0.3415E+00  0.2796E+01
    -13.065  0.1631E+00  0.2801E+01
    -13.038  0.4323E-01  0.2802E+01
    -13.010  0.3401E+00  0.2812E+01
    -12.982  0.4791E+00  0.2825E+01
    -12.955  0.2569E+00  0.2832E+01
    -12.927  0.3028E+00  0.2840E+01
    -12.899  0.1631E+00  0.2845E+01
    -12.872  0.4098E+00  0.2856E+01
    -12.844  0.1052E+00  0.2859E+01
    -12.816  0.2026E+00  0.2865E+01
    -12.789  0.4559E+00  0.2877E+01
    -12.761  0.2823E+00  0.2885E+01
    -12.733  0.2971E+00  0.2893E+01
    -12.705  0.5058E+00  0.2907E+01
    -12.678  0.3493E+00  0.2917E+01
    -12.650  0.4243E+00  0.2929E+01
    -12.622  0.1063E+00  0.2932E+01
    -12.595  0.3013E+00  0.2940E+01
    -12.567  0.4277E+00  0.2952E+01
    -12.539  0.5979E+00  0.2968E+01
    -12.512  0.3278E+00  0.2977E+01
    -12.484  0.3875E+00  0.2988E+01
    -12.456  0.2132E-01  0.2989E+01
    -12.429  0.3835E+00  0.2999E+01
    -12.401  0.3099E+00  0.3008E+01
    -12.373  0.7671E+00  0.3029E+01
    -12.346  0.4765E+00  0.3042E+01
    -12.318  0.2017E+00  0.3048E+01
    -12.290  0.1932E+00  0.3053E+01
    -12.263  0.2334E+00  0.3060E+01
    -12.235  0.2932E+00  0.3068E+01
    -12.207  0.4268E+00  0.3080E+01
    -12.180  0.7005E+00  0.3099E+01
    -12.152  0.4274E+00  0.3111E+01
    -12.124  0.1692E+00  0.3116E+01
    -12.097  0.3283E+00  0.3125E+01
    -12.069  0.2401E+00  0.3131E+01
    -12.041  0.5761E+00  0.3147E+01
    -12.014  0.2834E+00  0.3155E+01
    -11.986  0.2942E+00  0.3163E+01
    -11.958  0.5107E+00  0.3177E+01
    -11.930  0.2489E+00  0.3184E+01
    -11.903  0.3631E+00  0.3194E+01
    -11.875  0.3925E+00  0.3205E+01
    -11.847  0.6751E+00  0.3224E+01
    -11.820  0.1294E+00  0.3228E+01
    -11.792  0.4382E+00  0.3240E+01
    -11.764  0.3003E+00  0.3248E+01
    -11.737  0.3015E+00  0.3256E+01
    -11.709  0.3130E+00  0.3265E+01
    -11.681  0.7157E+00  0.3285E+01
    -11.654  0.8708E-01  0.3287E+01
    -11.626  0.2877E+00  0.3295E+01
    -11.598  0.5687E+00  0.3311E+01
    -11.571  0.4459E+00  0.3323E+01
    -11.543  0.4015E+00  0.3334E+01
    -11.515  0.3835E+00  0.3345E+01
    -11.488  0.4572E+00  0.3358E+01
    -11.460  0.2131E+00  0.3363E+01
    -11.432  0.2462E+00  0.3370E+01
    -11.405  0.2930E+00  0.3378E+01
    -11.377  0.3354E+00  0.3388E+01
    -11.349  0.5854E+00  0.3404E+01
    -11.322  0.7572E+00  0.3425E+01
    -11.294  0.3065E+00  0.3433E+01
    -11.266  0.3186E+00  0.3442E+01
    -11.239  0.5801E-01  0.3444E+01
    -11.211  0.3182E+00  0.3453E+01
    -11.183  0.7557E+00  0.3473E+01
    -11.155  0.3672E+00  0.3484E+01
    -11.128  0.5131E+00  0.3498E+01
    -11.100  0.7311E-01  0.3500E+01
    -11.072  0.3599E+00  0.3510E+01
    -11.045  0.3104E+00  0.3518E+01
    -11.017  0.5743E+00  0.3534E+01
    -10.989  0.4951E+00  0.3548E+01
    -10.962  0.6495E+00  0.3566E+01
    -10.934  0.3990E+00  0.3577E+01
    -10.906  0.3541E+00  0.3587E+01
    -10.879  0.1332E+00  0.3591E+01
    -10.851  0.1694E+00  0.3595E+01
    -10.823  0.1807E+00  0.3600E+01
    -10.796  0.5673E+00  0.3616E+01
    -10.768  0.9983E+00  0.3644E+01
    -10.740  0.4581E+00  0.3656E+01
    -10.713  0.3751E+00  0.3667E+01
    -10.685  0.2191E+00  0.3673E+01
    -10.657  0.2557E+00  0.3680E+01
    -10.630  0.1636E+00  0.3684E+01
    -10.602  0.4657E+00  0.3697E+01
    -10.574  0.1014E+01  0.3725E+01
    -10.547  0.1608E+00  0.3730E+01
    -10.519  0.2501E+00  0.3737E+01
    -10.491  0.4388E+00  0.3749E+01
    -10.464  0.5218E+00  0.3763E+01
    -10.436  0.1328E+00  0.3767E+01
    -10.408  0.4742E+00  0.3780E+01
    -10.381  0.1012E+01  0.3808E+01
    -10.353  0.4440E+00  0.3820E+01
    -10.325  0.7617E-01  0.3822E+01
    -10.297  0.3983E+00  0.3833E+01
    -10.270  0.1519E+00  0.3838E+01
    -10.242  0.3864E+00  0.3848E+01
    -10.214  0.3662E+00  0.3858E+01
    -10.187  0.7171E+00  0.3878E+01
    -10.159  0.8946E+00  0.3903E+01
    -10.131  0.4398E+00  0.3915E+01
    -10.104  0.4311E+00  0.3927E+01
    -10.076  0.6252E-01  0.3929E+01
    -10.048  0.1943E+00  0.3934E+01
    -10.021  0.3793E+00  0.3945E+01
     -9.993  0.4738E+00  0.3958E+01
     -9.965  0.1080E+01  0.3988E+01
     -9.938  0.2801E+00  0.3996E+01
     -9.910  0.3880E+00  0.4006E+01
     -9.882  0.4823E+00  0.4020E+01
     -9.855  0.4690E+00  0.4033E+01
     -9.827  0.7255E+00  0.4053E+01
     -9.799  0.6361E+00  0.4070E+01
     -9.772  0.1001E+01  0.4098E+01
     -9.744  0.3617E+00  0.4108E+01
     -9.716  0.9067E+00  0.4133E+01
     -9.689  0.8324E+00  0.4156E+01
     -9.661  0.9627E+00  0.4183E+01
     -9.633  0.2029E+00  0.4188E+01
     -9.606  0.8834E+00  0.4213E+01
     -9.578  0.8455E+00  0.4236E+01
     -9.550  0.9786E+00  0.4263E+01
     -9.522  0.5151E+00  0.4278E+01
     -9.495  0.7636E+00  0.4299E+01
     -9.467  0.5856E+00  0.4315E+01
     -9.439  0.9678E+00  0.4342E+01
     -9.412  0.7728E+00  0.4363E+01
     -9.384  0.8401E+00  0.4386E+01
     -9.356  0.9494E+00  0.4413E+01
     -9.329  0.5289E+00  0.4427E+01
     -9.301  0.6416E+00  0.4445E+01
     -9.273  0.6769E+00  0.4464E+01
     -9.246  0.1168E+01  0.4496E+01
     -9.218  0.9641E+00  0.4523E+01
     -9.190  0.6685E+00  0.4541E+01
     -9.163  0.7572E+00  0.4562E+01
     -9.135  0.6128E+00  0.4579E+01
     -9.107  0.1069E+01  0.4609E+01
     -9.080  0.9744E+00  0.4636E+01
     -9.052  0.5942E+00  0.4652E+01
     -9.024  0.6741E+00  0.4671E+01
     -8.997  0.7534E+00  0.4692E+01
     -8.969  0.1687E+01  0.4738E+01
     -8.941  0.8115E+00  0.4761E+01
     -8.914  0.6647E+00  0.4779E+01
     -8.886  0.9909E+00  0.4807E+01
     -8.858  0.6011E+00  0.4823E+01
     -8.831  0.9476E+00  0.4850E+01
     -8.803  0.1163E+01  0.4882E+01
     -8.775  0.1068E+01  0.4911E+01
     -8.748  0.8163E+00  0.4934E+01
     -8.720  0.1274E+01  0.4969E+01
     -8.692  0.1158E+01  0.5001E+01
     -8.664  0.1453E+01  0.5041E+01
     -8.637  0.1203E+01  0.5075E+01
     -8.609  0.1042E+01  0.5104E+01
     -8.581  0.9542E+00  0.5130E+01
     -8.554  0.1538E+01  0.5173E+01
     -8.526  0.9041E+00  0.5198E+01
     -8.498  0.6034E+00  0.5214E+01
     -8.471  0.9242E+00  0.5240E+01
     -8.443  0.7319E+00  0.5260E+01
     -8.415  0.1558E+01  0.5303E+01
     -8.388  0.1012E+01  0.5331E+01
     -8.360  0.6576E+00  0.5349E+01
     -8.332  0.7931E+00  0.5371E+01
     -8.305  0.5307E+00  0.5386E+01
     -8.277  0.8242E+00  0.5409E+01
     -8.249  0.8757E+00  0.5433E+01
     -8.222  0.1256E+01  0.5468E+01
     -8.194  0.5236E+00  0.5482E+01
     -8.166  0.1132E+01  0.5514E+01
     -8.139  0.5919E+00  0.5530E+01
     -8.111  0.6687E+00  0.5549E+01
     -8.083  0.6618E+00  0.5567E+01
     -8.056  0.8803E+00  0.5591E+01
     -8.028  0.8213E+00  0.5614E+01
     -8.000  0.8840E+00  0.5638E+01
     -7.973  0.6458E+00  0.5656E+01
     -7.945  0.7242E+00  0.5676E+01
     -7.917  0.3025E+00  0.5685E+01
     -7.889  0.1328E+01  0.5722E+01
     -7.862  0.6296E+00  0.5739E+01
     -7.834  0.6308E+00  0.5756E+01
     -7.806  0.9183E+00  0.5782E+01
     -7.779  0.4880E+00  0.5795E+01
     -7.751  0.7975E+00  0.5817E+01
     -7.723  0.5901E+00  0.5834E+01
     -7.696  0.6775E+00  0.5853E+01
     -7.668  0.6808E+00  0.5871E+01
     -7.640  0.9386E+00  0.5897E+01
     -7.613  0.8229E+00  0.5920E+01
     -7.585  0.4184E+00  0.5932E+01
     -7.557  0.4981E+00  0.5945E+01
     -7.530  0.4627E+00  0.5958E+01
     -7.502  0.1198E+01  0.5991E+01
     -7.474  0.8185E+00  0.6014E+01
     -7.447  0.7782E+00  0.6036E+01
     -7.419  0.1470E+00  0.6040E+01
     -7.391  0.7049E+00  0.6059E+01
     -7.364  0.4447E+00  0.6072E+01
     -7.336  0.6116E+00  0.6088E+01
     -7.308  0.8725E+00  0.6113E+01
     -7.281  0.1116E+01  0.6143E+01
     -7.253  0.6145E+00  0.6160E+01
     -7.225  0.3982E+00  0.6172E+01
     -7.198  0.4065E+00  0.6183E+01
     -7.170  0.8541E+00  0.6206E+01
     -7.142  0.4316E+00  0.6218E+01
     -7.115  0.6624E+00  0.6237E+01
     -7.087  0.5031E+00  0.6251E+01
     -7.059  0.6968E+00  0.6270E+01
     -7.031  0.8638E+00  0.6294E+01
     -7.004  0.8692E+00  0.6318E+01
     -6.976  0.5599E+00  0.6333E+01
     -6.948  0.3323E+00  0.6343E+01
     -6.921  0.3680E+00  0.6353E+01
     -6.893  0.4340E+00  0.6365E+01
     -6.865  0.9056E+00  0.6390E+01
     -6.838  0.9266E+00  0.6415E+01
     -6.810  0.4876E+00  0.6429E+01
     -6.782  0.8389E+00  0.6452E+01
     -6.755  0.4714E+00  0.6465E+01
     -6.727  0.2175E+00  0.6471E+01
     -6.699  0.5752E+00  0.6487E+01
     -6.672  0.7476E+00  0.6508E+01
     -6.644  0.7171E+00  0.6528E+01
     -6.616  0.6840E+00  0.6547E+01
     -6.589  0.4676E+00  0.6560E+01
     -6.561  0.3858E+00  0.6570E+01
     -6.533  0.5957E+00  0.6587E+01
     -6.506  0.8651E+00  0.6611E+01
     -6.478  0.9940E+00  0.6638E+01
     -6.450  0.1815E+00  0.6643E+01
     -6.423  0.3214E+00  0.6652E+01
     -6.395  0.1564E+00  0.6656E+01
     -6.367  0.9284E+00  0.6682E+01
     -6.340  0.7924E+00  0.6704E+01
     -6.312  0.9894E+00  0.6731E+01
     -6.284  0.3783E+00  0.6742E+01
     -6.256  0.4724E+00  0.6755E+01
     -6.229  0.3481E+00  0.6765E+01
     -6.201  0.4782E+00  0.6778E+01
     -6.173  0.4346E+00  0.6790E+01
     -6.146  0.8005E+00  0.6812E+01
     -6.118  0.8210E+00  0.6835E+01
     -6.090  0.5455E+00  0.6850E+01
     -6.063  0.6794E+00  0.6869E+01
     -6.035  0.2202E+00  0.6875E+01
     -6.007  0.7413E+00  0.6895E+01
     -5.980  0.5126E+00  0.6909E+01
     -5.952  0.5709E+00  0.6925E+01
     -5.924  0.1031E+00  0.6928E+01
     -5.897  0.7407E+00  0.6949E+01
     -5.869  0.8278E+00  0.6972E+01
     -5.841  0.7675E+00  0.6993E+01
     -5.814  0.6343E+00  0.7010E+01
     -5.786  0.2207E+00  0.7016E+01
     -5.758  0.3922E+00  0.7027E+01
     -5.731  0.8025E+00  0.7050E+01
     -5.703  0.6037E+00  0.7066E+01
     -5.675  0.2514E+00  0.7073E+01
     -5.648  0.4347E+00  0.7085E+01
     -5.620  0.9098E+00  0.7110E+01
     -5.592  0.5964E+00  0.7127E+01
     -5.565  0.7181E+00  0.7147E+01
     -5.537  0.5088E+00  0.7161E+01
     -5.509  0.4065E+00  0.7172E+01
     -5.481  0.5195E+00  0.7187E+01
     -5.454  0.4492E+00  0.7199E+01
     -5.426  0.6563E+00  0.7217E+01
     -5.398  0.2262E+00  0.7223E+01
     -5.371  0.8756E+00  0.7248E+01
     -5.343  0.7068E+00  0.7267E+01
     -5.315  0.5179E+00  0.7281E+01
     -5.288  0.6955E+00  0.7301E+01
     -5.260  0.2080E+00  0.7307E+01
     -5.232  0.2651E+00  0.7314E+01
     -5.205  0.4610E+00  0.7327E+01
     -5.177  0.1052E+00  0.7330E+01
     -5.149  0.2965E+00  0.7338E+01
     -5.122  0.3549E+00  0.7348E+01
     -5.094  0.6961E+00  0.7367E+01
     -5.066  0.5208E+00  0.7381E+01
     -5.039  0.3436E+00  0.7391E+01
     -5.011  0.2454E+00  0.7398E+01
     -4.983  0.5296E+00  0.7412E+01
     -4.956  0.2004E+00  0.7418E+01
     -4.928  0.3263E+00  0.7427E+01
     -4.900  0.2904E+00  0.7435E+01
     -4.873  0.3357E+00  0.7444E+01
     -4.845  0.6230E+00  0.7461E+01
     -4.817  0.6498E+00  0.7479E+01
     -4.790  0.5823E+00  0.7495E+01
     -4.762  0.3045E+00  0.7504E+01
     -4.734  0.5773E+00  0.7520E+01
     -4.707  0.3773E+00  0.7530E+01
     -4.679  0.4249E+00  0.7542E+01
     -4.651  0.4213E+00  0.7554E+01
     -4.623  0.5010E+00  0.7568E+01
     -4.596  0.8569E+00  0.7591E+01
     -4.568  0.8050E+00  0.7614E+01
     -4.540  0.6518E+00  0.7632E+01
     -4.513  0.1040E+01  0.7660E+01
     -4.485  0.3340E+00  0.7670E+01
     -4.457  0.3553E-01  0.7671E+01
     -4.430  0.1936E+00  0.7676E+01
     -4.402  0.1366E+00  0.7680E+01
     -4.374  0.2023E+00  0.7685E+01
     -4.347  0.3969E+00  0.7696E+01
     -4.319  0.1449E+01  0.7736E+01
     -4.291  0.3653E+00  0.7747E+01
     -4.264  0.2420E-01  0.7747E+01
     -4.236  0.1696E+00  0.7752E+01
     -4.208  0.6785E-01  0.7754E+01
     -4.181  0.2714E+00  0.7761E+01
     -4.153  0.1511E+00  0.7765E+01
     -4.125  0.2066E+00  0.7771E+01
     -4.098  0.4483E+00  0.7784E+01
     -4.070  0.5352E+00  0.7798E+01
     -4.042  0.5001E+00  0.7812E+01
     -4.015  0.1149E+00  0.7815E+01
     -3.987  0.1129E+00  0.7819E+01
     -3.959  0.1910E+00  0.7824E+01
     -3.932  0.2475E-01  0.7825E+01
     -3.904  0.2023E+00  0.7830E+01
     -3.876  0.3290E+00  0.7839E+01
     -3.848  0.1457E+00  0.7843E+01
     -3.821  0.2551E+00  0.7850E+01
     -3.793  0.6219E+00  0.7868E+01
     -3.765  0.7924E-01  0.7870E+01
     -3.738  0.8956E-01  0.7872E+01
     -3.710  0.1912E+00  0.7878E+01
     -3.682  0.1236E-01  0.7878E+01
     -3.655  0.1080E+00  0.7881E+01
     -3.627  0.2634E+00  0.7888E+01
     -3.599  0.1900E+00  0.7893E+01
     -3.572  0.1089E+00  0.7896E+01
     -3.544  0.2896E+00  0.7904E+01
     -3.516  0.3414E+00  0.7914E+01
     -3.489  0.3628E-01  0.7915E+01
     -3.461  0.9722E-01  0.7918E+01
     -3.433  0.8161E-01  0.7920E+01
     -3.406  0.1254E+00  0.7923E+01
     -3.378  0.9072E-03  0.7923E+01
     -3.350  0.1855E+00  0.7928E+01
     -3.323  0.2175E+00  0.7934E+01
     -3.295  0.2238E+00  0.7941E+01
     -3.267  0.1919E+00  0.7946E+01
     -3.240  0.1357E-02  0.7946E+01
     -3.212  0.8658E-01  0.7948E+01
     -3.184  0.1186E+00  0.7952E+01
     -3.157  0.4189E-01  0.7953E+01
     -3.129  0.6501E-01  0.7955E+01
     -3.101  0.1948E+00  0.7960E+01
     -3.074  0.6514E-02  0.7960E+01
     -3.046  0.1714E+00  0.7965E+01
     -3.018  0.1327E+00  0.7969E+01
     -2.990  0.1655E+00  0.7973E+01
     -2.963  0.4314E-01  0.7974E+01
     -2.935  0.2421E-06  0.7974E+01
     -2.907  0.1481E-07  0.7974E+01
     -2.880  0.1832E-01  0.7975E+01
     -2.852  0.1859E+00  0.7980E+01
     -2.824  0.1064E-02  0.7980E+01
     -2.797  0.1568E+00  0.7984E+01
     -2.769  0.1510E+00  0.7989E+01
     -2.741  0.1466E-04  0.7989E+01
     -2.714  0.0000E+00  0.7989E+01
     -2.686  0.5696E-16  0.7989E+01
     -2.658  0.2796E-05  0.7989E+01
     -2.631  0.7990E-01  0.7991E+01
     -2.603  0.1253E+00  0.7994E+01
     -2.575  0.1458E-03  0.7994E+01
     -2.548  0.8260E-01  0.7997E+01
     -2.520  0.1990E-01  0.7997E+01
     -2.492  0.9098E-07  0.7997E+01
     -2.465  0.0000E+00  0.7997E+01
     -2.437  0.3394E-08  0.7997E+01
     -2.409  0.7029E-02  0.7997E+01
     -2.382  0.9481E-01  0.8000E+01
     -2.354  0.7807E-03  0.8000E+01
     -2.326  0.1168E-10  0.8000E+01
     -2.299  0.0000E+00  0.8000E+01
     -2.271  0.0000E+00  0.8000E+01
     -2.243  0.0000E+00  0.8000E+01
     -2.215  0.0000E+00  0.8000E+01
     -2.188  0.0000E+00  0.8000E+01
     -2.160  0.2156E-09  0.8000E+01
     -2.132  0.2555E-02  0.8000E+01
     -2.105  0.9745E-01  0.8003E+01
     -2.077  0.2610E-02  0.8003E+01
     -2.049  0.2280E-09  0.8003E+01
     -2.022  0.6836E-16  0.8003E+01
     -1.994  0.2306E-05  0.8003E+01
     -1.966  0.4453E-01  0.8004E+01
     -1.939  0.5807E-01  0.8006E+01
     -1.911  0.1409E-02  0.8006E+01
     -1.883  0.1887E+00  0.8011E+01
     -1.856  0.1515E-01  0.8011E+01
     -1.828  0.8444E-08  0.8011E+01
     -1.800  0.0000E+00  0.8011E+01
     -1.773  0.1632E-07  0.8011E+01
     -1.745  0.1274E-01  0.8012E+01
     -1.717  0.2746E+00  0.8019E+01
     -1.690  0.2049E-01  0.8020E+01
     -1.662  0.1003E+00  0.8023E+01
     -1.634  0.1050E+00  0.8026E+01
     -1.607  0.1047E-04  0.8026E+01
     -1.579  0.9880E-05  0.8026E+01
     -1.551  0.1038E+00  0.8028E+01
     -1.524  0.1014E+00  0.8031E+01
     -1.496  0.5527E-01  0.8033E+01
     -1.468  0.2413E+00  0.8039E+01
     -1.441  0.3101E-01  0.8040E+01
     -1.413  0.2483E+00  0.8047E+01
     -1.385  0.3981E-01  0.8048E+01
     -1.357  0.1035E+00  0.8051E+01
     -1.330  0.1017E+00  0.8054E+01
     -1.302  0.8910E-05  0.8054E+01
     -1.274  0.1640E-01  0.8054E+01
     -1.247  0.2970E+00  0.8063E+01
     -1.219  0.2988E+00  0.8071E+01
     -1.191  0.1999E+00  0.8076E+01
     -1.164  0.1009E+00  0.8079E+01
     -1.136  0.2156E+00  0.8085E+01
     -1.108  0.7627E-01  0.8087E+01
     -1.081  0.1291E+00  0.8091E+01
     -1.053  0.4746E-02  0.8091E+01
     -1.025  0.1949E+00  0.8096E+01
     -0.998  0.8515E-01  0.8099E+01
     -0.970  0.6661E+00  0.8117E+01
     -0.942  0.3882E+00  0.8128E+01
     -0.915  0.1694E+00  0.8133E+01
     -0.887  0.1354E+00  0.8136E+01
     -0.859  0.1914E+00  0.8142E+01
     -0.832  0.1381E-01  0.8142E+01
     -0.804  0.9730E-01  0.8145E+01
     -0.776  0.2822E+00  0.8153E+01
     -0.749  0.9048E+00  0.8178E+01
     -0.721  0.6712E+00  0.8196E+01
     -0.693  0.9534E-01  0.8199E+01
     -0.666  0.3723E+00  0.8209E+01
     -0.638  0.4348E+00  0.8221E+01
     -0.610  0.4982E+00  0.8235E+01
     -0.582  0.7476E+00  0.8256E+01
     -0.555  0.9331E+00  0.8281E+01
     -0.527  0.8804E+00  0.8306E+01
     -0.499  0.4045E+00  0.8317E+01
     -0.472  0.9643E+00  0.8344E+01
     -0.444  0.4415E+00  0.8356E+01
     -0.416  0.4994E+00  0.8370E+01
     -0.389  0.4943E+00  0.8383E+01
     -0.361  0.2807E+00  0.8391E+01
     -0.333  0.3205E+00  0.8400E+01
     -0.306  0.6611E+00  0.8418E+01
     -0.278  0.1183E+00  0.8422E+01
     -0.250  0.5283E+00  0.8436E+01
     -0.223  0.3484E+00  0.8446E+01
     -0.195  0.5520E+00  0.8461E+01
     -0.167  0.7305E+00  0.8481E+01
     -0.140  0.5457E-01  0.8483E+01
     -0.112  0.2038E+00  0.8489E+01
     -0.084  0.4609E+00  0.8501E+01
     -0.057  0.4589E+00  0.8514E+01
     -0.029  0.1211E+00  0.8517E+01
     -0.001  0.2735E+00  0.8525E+01
      0.026  0.3069E+00  0.8533E+01
      0.054  0.4430E+00  0.8546E+01
      0.082  0.4771E+00  0.8559E+01
      0.109  0.4254E+00  0.8571E+01
      0.137  0.3147E+00  0.8579E+01
      0.165  0.1507E+00  0.8584E+01
      0.192  0.1615E+00  0.8588E+01
      0.220  0.6508E+00  0.8606E+01
      0.248  0.1662E+00  0.8611E+01
      0.276  0.6709E-01  0.8613E+01
      0.303  0.3305E+00  0.8622E+01
      0.331  0.1589E+00  0.8626E+01
      0.359  0.5315E+00  0.8641E+01
      0.386  0.5061E+00  0.8655E+01
      0.414  0.2639E+00  0.8662E+01
      0.442  0.3525E+00  0.8672E+01
      0.469  0.5311E-01  0.8673E+01
      0.497  0.1950E+00  0.8679E+01
      0.525  0.2500E+00  0.8686E+01
      0.552  0.5906E+00  0.8702E+01
      0.580  0.8729E-01  0.8704E+01
      0.608  0.1586E+00  0.8709E+01
      0.635  0.2289E+00  0.8715E+01
      0.663  0.2293E+00  0.8721E+01
      0.691  0.4791E+00  0.8735E+01
      0.718  0.5467E+00  0.8750E+01
      0.746  0.1021E+00  0.8753E+01
      0.774  0.2769E+00  0.8760E+01
      0.801  0.1332E+00  0.8764E+01
      0.829  0.6702E-01  0.8766E+01
      0.857  0.1719E+00  0.8771E+01
      0.884  0.3894E+00  0.8781E+01
      0.912  0.4879E+00  0.8795E+01
      0.940  0.2066E+00  0.8801E+01
      0.967  0.2851E+00  0.8809E+01
      0.995  0.6141E+00  0.8826E+01
      1.023  0.5394E+00  0.8840E+01
      1.051  0.5404E+00  0.8855E+01
      1.078  0.3698E+00  0.8866E+01
      1.106  0.5385E+00  0.8881E+01
      1.134  0.4657E+00  0.8893E+01
      1.161  0.3749E+00  0.8904E+01
      1.189  0.2044E+00  0.8909E+01
      1.217  0.5472E+00  0.8925E+01
      1.244  0.4202E+00  0.8936E+01
      1.272  0.7088E+00  0.8956E+01
      1.300  0.4483E+00  0.8968E+01
      1.327  0.6405E+00  0.8986E+01
      1.355  0.2775E+00  0.8994E+01
      1.383  0.4563E+00  0.9006E+01
      1.410  0.3431E+00  0.9016E+01
      1.438  0.4877E+00  0.9029E+01
      1.466  0.3740E+00  0.9040E+01
      1.493  0.5540E+00  0.9055E+01
      1.521  0.5499E+00  0.9070E+01
      1.549  0.2730E+00  0.9078E+01
      1.576  0.4026E+00  0.9089E+01
      1.604  0.2963E+00  0.9097E+01
      1.632  0.5730E+00  0.9113E+01
      1.659  0.8701E+00  0.9137E+01
      1.687  0.4857E+00  0.9151E+01
      1.715  0.1603E+00  0.9155E+01
      1.742  0.2683E+00  0.9162E+01
      1.770  0.5632E+00  0.9178E+01
      1.798  0.5186E+00  0.9192E+01
      1.826  0.5246E+00  0.9207E+01
      1.853  0.6338E+00  0.9224E+01
      1.881  0.7002E+00  0.9244E+01
      1.909  0.8294E+00  0.9267E+01
      1.936  0.6043E+00  0.9283E+01
      1.964  0.8512E+00  0.9307E+01
      1.992  0.5212E+00  0.9321E+01
      2.019  0.5961E+00  0.9338E+01
      2.047  0.5235E+00  0.9352E+01
      2.075  0.8621E+00  0.9376E+01
      2.102  0.6923E+00  0.9395E+01
      2.130  0.6996E+00  0.9415E+01
      2.158  0.7215E+00  0.9435E+01
      2.185  0.7851E+00  0.9456E+01
      2.213  0.5319E+00  0.9471E+01
      2.241  0.1180E+01  0.9504E+01
      2.268  0.9928E+00  0.9531E+01
      2.296  0.1333E+01  0.9568E+01
      2.324  0.6751E+00  0.9587E+01
      2.351  0.6301E+00  0.9604E+01
      2.379  0.7473E+00  0.9625E+01
      2.407  0.9906E+00  0.9652E+01
      2.434  0.9534E+00  0.9679E+01
      2.462  0.7350E+00  0.9699E+01
      2.490  0.6738E+00  0.9718E+01
      2.517  0.1196E+01  0.9751E+01
      2.545  0.8482E+00  0.9774E+01
      2.573  0.5245E+00  0.9789E+01
      2.600  0.9092E+00  0.9814E+01
      2.628  0.1106E+01  0.9845E+01
      2.656  0.1102E+01  0.9875E+01
      2.684  0.8029E+00  0.9897E+01
      2.711  0.7612E+00  0.9919E+01
      2.739  0.6815E+00  0.9937E+01
      2.767  0.6431E+00  0.9955E+01
      2.794  0.1064E+01  0.9985E+01
      2.822  0.1009E+01  0.1001E+02
      2.850  0.7080E+00  0.1003E+02
      2.877  0.7872E+00  0.1005E+02
      2.905  0.6923E+00  0.1007E+02
      2.933  0.1278E+01  0.1011E+02
      2.960  0.6632E+00  0.1013E+02
      2.988  0.1096E+01  0.1016E+02
      3.016  0.8026E+00  0.1018E+02
      3.043  0.7293E+00  0.1020E+02
      3.071  0.7078E+00  0.1022E+02
      3.099  0.9723E+00  0.1025E+02
      3.126  0.8892E+00  0.1027E+02
      3.154  0.9111E+00  0.1030E+02
      3.182  0.7652E+00  0.1032E+02
      3.209  0.5711E+00  0.1033E+02
      3.237  0.7450E+00  0.1035E+02
      3.265  0.1051E+01  0.1038E+02
      3.292  0.1265E+01  0.1042E+02
      3.320  0.8741E+00  0.1044E+02
      3.348  0.1191E+01  0.1047E+02
      3.375  0.2357E+00  0.1048E+02
      3.403  0.5971E+00  0.1050E+02
      3.431  0.5826E+00  0.1051E+02
      3.459  0.1400E+01  0.1055E+02
      3.486  0.8969E+00  0.1058E+02
      3.514  0.6621E+00  0.1060E+02
      3.542  0.1079E+01  0.1063E+02
      3.569  0.7239E+00  0.1065E+02
      3.597  0.5701E+00  0.1066E+02
      3.625  0.1057E+01  0.1069E+02
      3.652  0.7854E+00  0.1071E+02
      3.680  0.1028E+01  0.1074E+02
      3.708  0.9327E+00  0.1077E+02
      3.735  0.7472E+00  0.1079E+02
      3.763  0.1088E+01  0.1082E+02
      3.791  0.4947E+00  0.1083E+02
      3.818  0.6716E+00  0.1085E+02
      3.846  0.7769E+00  0.1087E+02
      3.874  0.1118E+01  0.1090E+02
      3.901  0.9750E+00  0.1093E+02
      3.929  0.5481E+00  0.1094E+02
      3.957  0.7826E+00  0.1097E+02
      3.984  0.1124E+01  0.1100E+02
      4.012  0.1373E+01  0.1104E+02
      4.040  0.5072E+00  0.1105E+02
      4.067  0.8804E+00  0.1107E+02
      4.095  0.1259E+01  0.1111E+02
      4.123  0.1270E+01  0.1114E+02
      4.150  0.9192E+00  0.1117E+02
      4.178  0.8075E+00  0.1119E+02
      4.206  0.6636E+00  0.1121E+02
      4.233  0.1121E+01  0.1124E+02
      4.261  0.6671E+00  0.1126E+02
      4.289  0.1216E+01  0.1129E+02
      4.317  0.8918E+00  0.1132E+02
      4.344  0.4375E+00  0.1133E+02
      4.372  0.1037E+01  0.1136E+02
      4.400  0.7601E+00  0.1138E+02
      4.427  0.7484E+00  0.1140E+02
      4.455  0.1503E+01  0.1144E+02
      4.483  0.1051E+01  0.1147E+02
      4.510  0.1599E+01  0.1152E+02
      4.538  0.8168E+00  0.1154E+02
      4.566  0.1178E+01  0.1157E+02
      4.593  0.1187E+01  0.1160E+02
      4.621  0.8632E+00  0.1163E+02
      4.649  0.1330E+01  0.1166E+02
      4.676  0.1088E+01  0.1169E+02
      4.704  0.1141E+01  0.1173E+02
      4.732  0.9926E+00  0.1175E+02
      4.759  0.4867E+00  0.1177E+02
      4.787  0.1470E+01  0.1181E+02
      4.815  0.9721E+00  0.1183E+02
      4.842  0.1397E+01  0.1187E+02
      4.870  0.8555E+00  0.1190E+02
      4.898  0.6940E+00  0.1192E+02
      4.925  0.1818E+01  0.1197E+02
      4.953  0.1114E+01  0.1200E+02
      4.981  0.1308E+01  0.1203E+02
      5.008  0.1154E+01  0.1206E+02
      5.036  0.9717E+00  0.1209E+02
      5.064  0.1613E+01  0.1214E+02
      5.092  0.1509E+01  0.1218E+02
      5.119  0.1665E+01  0.1222E+02
      5.147  0.1593E+01  0.1227E+02
      5.175  0.1376E+01  0.1231E+02
      5.202  0.2164E+01  0.1237E+02
      5.230  0.2387E+01  0.1243E+02
      5.258  0.1720E+01  0.1248E+02
      5.285  0.1820E+01  0.1253E+02
      5.313  0.1185E+01  0.1256E+02
      5.341  0.1208E+01  0.1260E+02
      5.368  0.2669E+01  0.1267E+02
      5.396  0.1657E+01  0.1272E+02
      5.424  0.1944E+01  0.1277E+02
      5.451  0.1733E+01  0.1282E+02
      5.479  0.1623E+01  0.1286E+02
      5.507  0.1938E+01  0.1292E+02
      5.534  0.2144E+01  0.1298E+02
      5.562  0.1336E+01  0.1301E+02
      5.590  0.2213E+01  0.1307E+02
      5.617  0.2029E+01  0.1313E+02
      5.645  0.1363E+01  0.1317E+02
      5.673  0.1554E+01  0.1321E+02
      5.700  0.7417E+00  0.1323E+02
      5.728  0.2296E+01  0.1330E+02
      5.756  0.2270E+01  0.1336E+02
      5.783  0.2062E+01  0.1342E+02
      5.811  0.2155E+01  0.1347E+02
      5.839  0.2050E+01  0.1353E+02
      5.866  0.1640E+01  0.1358E+02
      5.894  0.1631E+01  0.1362E+02
      5.922  0.2277E+01  0.1369E+02
      5.950  0.2309E+01  0.1375E+02
      5.977  0.1637E+01  0.1379E+02
      6.005  0.1845E+01  0.1385E+02
      6.033  0.2044E+01  0.1390E+02
      6.060  0.2846E+01  0.1398E+02
      6.088  0.2011E+01  0.1404E+02
      6.116  0.2369E+01  0.1410E+02
      6.143  0.2356E+01  0.1417E+02
      6.171  0.3530E+01  0.1426E+02
      6.199  0.2394E+01  0.1433E+02
      6.226  0.2729E+01  0.1441E+02
      6.254  0.1539E+01  0.1445E+02
      6.282  0.2237E+01  0.1451E+02
      6.309  0.2770E+01  0.1459E+02
      6.337  0.2442E+01  0.1466E+02
      6.365  0.2323E+01  0.1472E+02
      6.392  0.1824E+01  0.1477E+02
      6.420  0.2290E+01  0.1483E+02
      6.448  0.1919E+01  0.1489E+02
      6.475  0.1439E+01  0.1493E+02
      6.503  0.1689E+01  0.1497E+02
      6.531  0.1558E+01  0.1502E+02
      6.558  0.2257E+01  0.1508E+02
      6.586  0.2195E+01  0.1514E+02
      6.614  0.2090E+01  0.1520E+02
      6.641  0.1743E+01  0.1525E+02
      6.669  0.1810E+01  0.1530E+02
      6.697  0.2018E+01  0.1535E+02
      6.725  0.1717E+01  0.1540E+02
      6.752  0.1499E+01  0.1544E+02
      6.780  0.1860E+01  0.1549E+02
      6.808  0.2254E+01  0.1555E+02
      6.835  0.1545E+01  0.1560E+02
      6.863  0.1382E+01  0.1564E+02
      6.891  0.1568E+01  0.1568E+02
      6.918  0.2097E+01  0.1574E+02
      6.946  0.1203E+01  0.1577E+02
      6.974  0.2448E+01  0.1584E+02
      7.001  0.2287E+01  0.1590E+02
      7.029  0.1022E+01  0.1593E+02
      7.057  0.1824E+01  0.1598E+02
      7.084  0.1556E+01  0.1602E+02
      7.112  0.2180E+01  0.1608E+02
      7.140  0.1489E+01  0.1612E+02
      7.167  0.2022E+01  0.1618E+02
      7.195  0.1470E+01  0.1622E+02
      7.223  0.1386E+01  0.1626E+02
      7.250  0.1295E+01  0.1630E+02
      7.278  0.1654E+01  0.1634E+02
      7.306  0.1394E+01  0.1638E+02
      7.333  0.2282E+01  0.1644E+02
      7.361  0.2663E+01  0.1652E+02
      7.389  0.1836E+01  0.1657E+02
      7.416  0.9667E+00  0.1659E+02
      7.444  0.1558E+01  0.1664E+02
      7.472  0.1265E+01  0.1667E+02
      7.500  0.1443E+01  0.1671E+02
      7.527  0.2118E+01  0.1677E+02
      7.555  0.1815E+01  0.1682E+02
      7.583  0.1867E+01  0.1687E+02
      7.610  0.1518E+01  0.1692E+02
      7.638  0.1099E+01  0.1695E+02
      7.666  0.1748E+01  0.1699E+02
      7.693  0.2074E+01  0.1705E+02
      7.721  0.1305E+01  0.1709E+02
      7.749  0.1443E+01  0.1713E+02
      7.776  0.1968E+01  0.1718E+02
      7.804  0.1808E+01  0.1723E+02
      7.832  0.1803E+01  0.1728E+02
      7.859  0.2074E+01  0.1734E+02
      7.887  0.1030E+01  0.1737E+02
      7.915  0.1028E+01  0.1740E+02
      7.942  0.1896E+01  0.1745E+02
      7.970  0.1826E+01  0.1750E+02
      7.998  0.1451E+01  0.1754E+02
      8.025  0.2044E+01  0.1760E+02
      8.053  0.2260E+01  0.1766E+02
      8.081  0.1488E+01  0.1770E+02
      8.108  0.1986E+01  0.1775E+02
      8.136  0.1895E+01  0.1781E+02
      8.164  0.1359E+01  0.1784E+02
      8.191  0.1580E+01  0.1789E+02
      8.219  0.1846E+01  0.1794E+02
      8.247  0.2540E+01  0.1801E+02
      8.274  0.2251E+01  0.1807E+02
      8.302  0.2067E+01  0.1813E+02
      8.330  0.1578E+01  0.1817E+02
      8.358  0.1561E+01  0.1822E+02
      8.385  0.1803E+01  0.1827E+02
      8.413  0.2966E+01  0.1835E+02
      8.441  0.2821E+01  0.1843E+02
      8.468  0.2320E+01  0.1849E+02
      8.496  0.2008E+01  0.1855E+02
      8.524  0.2134E+01  0.1861E+02
      8.551  0.2177E+01  0.1867E+02
      8.579  0.2189E+01  0.1873E+02
      8.607  0.1969E+01  0.1878E+02
      8.634  0.2707E+01  0.1886E+02
      8.662  0.2012E+01  0.1891E+02
      8.690  0.2351E+01  0.1898E+02
      8.717  0.2511E+01  0.1905E+02
      8.745  0.1305E+01  0.1908E+02
      8.773  0.1850E+01  0.1913E+02
      8.800  0.2036E+01  0.1919E+02
      8.828  0.2024E+01  0.1925E+02
      8.856  0.2614E+01  0.1932E+02
      8.883  0.1549E+01  0.1936E+02
      8.911  0.1578E+01  0.1940E+02
      8.939  0.1904E+01  0.1946E+02
      8.966  0.2008E+01  0.1951E+02
      8.994  0.1545E+01  0.1956E+02
      9.022  0.1997E+01  0.1961E+02
      9.049  0.2085E+01  0.1967E+02
      9.077  0.1375E+01  0.1971E+02
      9.105  0.2215E+01  0.1977E+02
      9.133  0.2202E+01  0.1983E+02
      9.160  0.1728E+01  0.1988E+02
      9.188  0.2695E+01  0.1995E+02
      9.216  0.2602E+01  0.2002E+02
      9.243  0.1920E+01  0.2008E+02
      9.271  0.1115E+01  0.2011E+02
      9.299  0.2008E+01  0.2016E+02
      9.326  0.1881E+01  0.2021E+02
      9.354  0.9929E+00  0.2024E+02
      9.382  0.2339E+01  0.2031E+02
      9.409  0.2177E+01  0.2037E+02
      9.437  0.2389E+01  0.2043E+02
      9.465  0.2660E+01  0.2051E+02
      9.492  0.1420E+01  0.2055E+02
      9.520  0.1932E+01  0.2060E+02
      9.548  0.2405E+01  0.2067E+02
      9.575  0.1830E+01  0.2072E+02
      9.603  0.2269E+01  0.2078E+02
      9.631  0.2550E+01  0.2085E+02
      9.658  0.1488E+01  0.2089E+02
      9.686  0.1584E+01  0.2094E+02
      9.714  0.1226E+01  0.2097E+02
      9.741  0.2506E+01  0.2104E+02
      9.769  0.1934E+01  0.2109E+02
      9.797  0.2009E+01  0.2115E+02
      9.824  0.1467E+01  0.2119E+02
      9.852  0.2747E+01  0.2126E+02
      9.880  0.1467E+01  0.2130E+02
      9.907  0.2234E+01  0.2137E+02
      9.935  0.1975E+01  0.2142E+02
      9.963  0.1997E+01  0.2148E+02
      9.991  0.2229E+01  0.2154E+02
     10.018  0.1529E+01  0.2158E+02
     10.046  0.2318E+01  0.2164E+02
     10.074  0.1964E+01  0.2170E+02
     10.101  0.1934E+01  0.2175E+02
     10.129  0.2790E+01  0.2183E+02
     10.157  0.1990E+01  0.2189E+02
     10.184  0.1895E+01  0.2194E+02
     10.212  0.2050E+01  0.2199E+02
     10.240  0.2005E+01  0.2205E+02
     10.267  0.2171E+01  0.2211E+02
     10.295  0.2846E+01  0.2219E+02
     10.323  0.1421E+01  0.2223E+02
     10.350  0.1937E+01  0.2228E+02
     10.378  0.3300E+01  0.2237E+02
     10.406  0.3013E+01  0.2246E+02
     10.433  0.2574E+01  0.2253E+02
     10.461  0.2503E+01  0.2260E+02
     10.489  0.2409E+01  0.2266E+02
     10.516  0.2730E+01  0.2274E+02
     10.544  0.2924E+01  0.2282E+02
     10.572  0.1663E+01  0.2287E+02
     10.599  0.1966E+01  0.2292E+02
     10.627  0.2474E+01  0.2299E+02
     10.655  0.2259E+01  0.2305E+02
     10.682  0.3053E+01  0.2314E+02
     10.710  0.2037E+01  0.2319E+02
     10.738  0.2219E+01  0.2325E+02
     10.766  0.1879E+01  0.2331E+02
     10.793  0.2204E+01  0.2337E+02
     10.821  0.1702E+01  0.2341E+02
     10.849  0.2356E+01  0.2348E+02
     10.876  0.1897E+01  0.2353E+02
     10.904  0.1104E+01  0.2356E+02
     10.932  0.1791E+01  0.2361E+02
     10.959  0.2179E+01  0.2367E+02
     10.987  0.1878E+01  0.2372E+02
     11.015  0.2329E+01  0.2379E+02
     11.042  0.1742E+01  0.2384E+02
     11.070  0.2604E+01  0.2391E+02
     11.098  0.1822E+01  0.2396E+02
     11.125  0.3161E+01  0.2405E+02
     11.153  0.1963E+01  0.2410E+02
     11.181  0.1872E+01  0.2415E+02
     11.208  0.2383E+01  0.2422E+02
     11.236  0.1769E+01  0.2427E+02
     11.264  0.1618E+01  0.2431E+02
     11.291  0.2787E+01  0.2439E+02
     11.319  0.2392E+01  0.2446E+02
     11.347  0.3156E+01  0.2454E+02
     11.374  0.2251E+01  0.2461E+02
     11.402  0.2499E+01  0.2467E+02
     11.430  0.2637E+01  0.2475E+02
     11.457  0.3063E+01  0.2483E+02
     11.485  0.2383E+01  0.2490E+02
     11.513  0.2823E+01  0.2498E+02
     11.540  0.2994E+01  0.2506E+02
     11.568  0.3067E+01  0.2514E+02
     11.596  0.2875E+01  0.2522E+02
     11.624  0.2625E+01  0.2530E+02
     11.651  0.3380E+01  0.2539E+02
     11.679  0.2339E+01  0.2545E+02
     11.707  0.2198E+01  0.2552E+02
     11.734  0.2996E+01  0.2560E+02
     11.762  0.1814E+01  0.2565E+02
     11.790  0.2140E+01  0.2571E+02
     11.817  0.2185E+01  0.2577E+02
     11.845  0.2121E+01  0.2583E+02
     11.873  0.2570E+01  0.2590E+02
     11.900  0.2078E+01  0.2596E+02
     11.928  0.1905E+01  0.2601E+02
     11.956  0.1782E+01  0.2606E+02
     11.983  0.1707E+01  0.2610E+02
     12.011  0.1870E+01  0.2616E+02
     12.039  0.1111E+01  0.2619E+02
     12.066  0.1936E+01  0.2624E+02
     12.094  0.2239E+01  0.2630E+02
     12.122  0.1162E+01  0.2634E+02
     12.149  0.2388E+01  0.2640E+02
     12.177  0.1866E+01  0.2645E+02
     12.205  0.1514E+01  0.2649E+02
     12.232  0.1743E+01  0.2654E+02
     12.260  0.1706E+01  0.2659E+02
     12.288  0.2115E+01  0.2665E+02
     12.315  0.2237E+01  0.2671E+02
     12.343  0.1417E+01  0.2675E+02
     12.371  0.9850E+00  0.2678E+02
     12.399  0.1967E+01  0.2683E+02
     12.426  0.2012E+01  0.2689E+02
     12.454  0.1987E+01  0.2694E+02
     12.482  0.1932E+01  0.2700E+02
     12.509  0.9358E+00  0.2702E+02
     12.537  0.1383E+01  0.2706E+02
     12.565  0.3968E+00  0.2707E+02
     12.592  0.1058E+01  0.2710E+02
     12.620  0.2954E+01  0.2718E+02
     12.648  0.1303E+01  0.2722E+02
     12.675  0.1603E+01  0.2726E+02
     12.703  0.1691E+01  0.2731E+02
     12.731  0.1983E+01  0.2736E+02
     12.758  0.2055E+01  0.2742E+02
     12.786  0.1914E+01  0.2747E+02
     12.814  0.1563E+01  0.2752E+02
     12.841  0.1107E+01  0.2755E+02
     12.869  0.6150E+00  0.2756E+02
     12.897  0.1159E+01  0.2760E+02
     12.924  0.2034E+01  0.2765E+02
     12.952  0.1753E+01  0.2770E+02
     12.980  0.1293E+01  0.2774E+02
     13.007  0.1706E+01  0.2778E+02
     13.035  0.1618E+01  0.2783E+02
     13.063  0.1950E+01  0.2788E+02
     13.090  0.1821E+01  0.2793E+02
     13.118  0.1406E+01  0.2797E+02
     13.146  0.1312E+01  0.2801E+02
     13.174  0.1069E+01  0.2804E+02
     13.201  0.8892E+00  0.2806E+02
     13.229  0.1994E+01  0.2812E+02
     13.257  0.1962E+01  0.2817E+02
     13.284  0.2336E+01  0.2824E+02
     13.312  0.2865E+01  0.2832E+02
     13.340  0.1708E+01  0.2836E+02
     13.367  0.2441E+01  0.2843E+02
     13.395  0.1497E+01  0.2847E+02
     13.423  0.1376E+01  0.2851E+02
     13.450  0.1361E+01  0.2855E+02
     13.478  0.1752E+01  0.2860E+02
     13.506  0.1943E+01  0.2865E+02
     13.533  0.2940E+01  0.2873E+02
     13.561  0.2036E+01  0.2879E+02
     13.589  0.2148E+01  0.2885E+02
     13.616  0.1851E+01  0.2890E+02
     13.644  0.1867E+01  0.2895E+02
     13.672  0.1897E+01  0.2900E+02
     13.699  0.2823E+01  0.2908E+02
     13.727  0.2091E+01  0.2914E+02
     13.755  0.2041E+01  0.2920E+02
     13.782  0.2686E+01  0.2927E+02
     13.810  0.2323E+01  0.2933E+02
     13.838  0.1718E+01  0.2938E+02
     13.865  0.3161E+01  0.2947E+02
     13.893  0.2770E+01  0.2955E+02
     13.921  0.1755E+01  0.2960E+02
     13.948  0.1888E+01  0.2965E+02
     13.976  0.2134E+01  0.2971E+02
     14.004  0.2132E+01  0.2977E+02
     14.032  0.2236E+01  0.2983E+02
     14.059  0.3208E+01  0.2992E+02
     14.087  0.2202E+01  0.2998E+02
     14.115  0.2777E+01  0.3005E+02
     14.142  0.2781E+01  0.3013E+02
     14.170  0.2417E+01  0.3020E+02
     14.198  0.1946E+01  0.3025E+02
     14.225  0.2737E+01  0.3033E+02
     14.253  0.2623E+01  0.3040E+02
     14.281  0.3526E+01  0.3050E+02
     14.308  0.3417E+01  0.3059E+02
     14.336  0.3422E+01  0.3069E+02
     14.364  0.2569E+01  0.3076E+02
     14.391  0.3126E+01  0.3084E+02
     14.419  0.2546E+01  0.3092E+02
     14.447  0.1637E+01  0.3096E+02
     14.474  0.2851E+01  0.3104E+02
     14.502  0.3156E+01  0.3113E+02
     14.530  0.3152E+01  0.3121E+02
     14.557  0.3037E+01  0.3130E+02
     14.585  0.1688E+01  0.3134E+02
     14.613  0.1660E+01  0.3139E+02
     14.640  0.2575E+01  0.3146E+02
     14.668  0.2891E+01  0.3154E+02
     14.696  0.3511E+01  0.3164E+02
     14.723  0.2899E+01  0.3172E+02
     14.751  0.2492E+01  0.3179E+02
     14.779  0.3519E+01  0.3189E+02
     14.807  0.2873E+01  0.3197E+02
     14.834  0.1521E+01  0.3201E+02
     14.862  0.2685E+01  0.3208E+02
     14.890  0.2630E+01  0.3215E+02
     14.917  0.2465E+01  0.3222E+02
     14.945  0.1864E+01  0.3227E+02
     14.973  0.2324E+01  0.3234E+02
     15.000  0.1722E+01  0.3239E+02
     15.028  0.1945E+01  0.3244E+02
     15.056  0.2766E+01  0.3252E+02
     15.083  0.2032E+01  0.3257E+02
     15.111  0.2158E+01  0.3263E+02
     15.139  0.2238E+01  0.3269E+02
     15.166  0.2929E+01  0.3278E+02
     15.194  0.3028E+01  0.3286E+02
     15.222  0.2645E+01  0.3293E+02
     15.249  0.2474E+01  0.3300E+02
     15.277  0.1743E+01  0.3305E+02
     15.305  0.1650E+01  0.3309E+02
     15.332  0.2428E+01  0.3316E+02
     15.360  0.2054E+01  0.3322E+02
     15.388  0.1345E+01  0.3326E+02
     15.415  0.1531E+01  0.3330E+02
     15.443  0.1855E+01  0.3335E+02
     15.471  0.1727E+01  0.3340E+02
     15.498  0.1038E+01  0.3343E+02
     15.526  0.1732E+01  0.3347E+02
     15.554  0.2113E+01  0.3353E+02
     15.581  0.2517E+01  0.3360E+02
     15.609  0.1490E+01  0.3364E+02
     15.637  0.1265E+01  0.3368E+02
     15.665  0.1901E+01  0.3373E+02
     15.692  0.2742E+01  0.3381E+02
     15.720  0.2597E+01  0.3388E+02
     15.748  0.2836E+01  0.3396E+02
     15.775  0.1581E+01  0.3400E+02
     15.803  0.1424E+01  0.3404E+02
     15.831  0.1870E+01  0.3409E+02
     15.858  0.1588E+01  0.3414E+02
     15.886  0.2107E+01  0.3419E+02
     15.914  0.2879E+01  0.3427E+02
     15.941  0.2857E+01  0.3435E+02
     15.969  0.2146E+01  0.3441E+02
     15.997  0.2123E+01  0.3447E+02
     16.024  0.1771E+01  0.3452E+02
     16.052  0.2600E+01  0.3459E+02
     16.080  0.2791E+01  0.3467E+02
     16.107  0.3405E+01  0.3476E+02
     16.135  0.2598E+01  0.3484E+02
     16.163  0.1742E+01  0.3488E+02
     16.190  0.1981E+01  0.3494E+02
     16.218  0.2112E+01  0.3500E+02
     16.246  0.2705E+01  0.3507E+02
     16.273  0.2425E+01  0.3514E+02
     16.301  0.2244E+01  0.3520E+02
     16.329  0.1643E+01  0.3525E+02
     16.356  0.3118E+01  0.3533E+02
     16.384  0.2448E+01  0.3540E+02
     16.412  0.1351E+01  0.3544E+02
     16.440  0.2218E+01  0.3550E+02
     16.467  0.2322E+01  0.3556E+02
     16.495  0.3438E+01  0.3566E+02
     16.523  0.2294E+01  0.3572E+02
     16.550  0.2655E+01  0.3580E+02
     16.578  0.2039E+01  0.3585E+02
     16.606  0.1334E+01  0.3589E+02
     16.633  0.1652E+01  0.3594E+02
     16.661  0.3239E+01  0.3603E+02
     16.689  0.2235E+01  0.3609E+02
     16.716  0.1727E+01  0.3613E+02
     16.744  0.3009E+01  0.3622E+02
     16.772  0.1925E+01  0.3627E+02
     16.799  0.2203E+01  0.3633E+02
     16.827  0.1219E+01  0.3637E+02
     16.855  0.2918E+01  0.3645E+02
     16.882  0.2541E+01  0.3652E+02
     16.910  0.2804E+01  0.3659E+02
     16.938  0.2673E+01  0.3667E+02
     16.965  0.3553E+01  0.3677E+02
     16.993  0.1972E+01  0.3682E+02
     17.021  0.3634E+01  0.3692E+02
     17.048  0.4118E+01  0.3704E+02
     17.076  0.2739E+01  0.3711E+02
     17.104  0.2544E+01  0.3718E+02
     17.131  0.2363E+01  0.3725E+02
     17.159  0.2175E+01  0.3731E+02
     17.187  0.2426E+01  0.3738E+02
     17.214  0.2611E+01  0.3745E+02
     17.242  0.2618E+01  0.3752E+02
     17.270  0.1517E+01  0.3756E+02
     17.298  0.1948E+01  0.3762E+02
     17.325  0.1873E+01  0.3767E+02
     17.353  0.1844E+01  0.3772E+02
     17.381  0.1692E+01  0.3777E+02
     17.408  0.2700E+01  0.3784E+02
     17.436  0.2304E+01  0.3790E+02
     17.464  0.1903E+01  0.3796E+02
     17.491  0.2000E+01  0.3801E+02
     17.519  0.2226E+01  0.3807E+02
     17.547  0.1544E+01  0.3812E+02
     17.574  0.2139E+01  0.3818E+02
     17.602  0.2431E+01  0.3824E+02
     17.630  0.2580E+01  0.3831E+02
     17.657  0.1962E+01  0.3837E+02
     17.685  0.2286E+01  0.3843E+02
     17.713  0.2884E+01  0.3851E+02
     17.740  0.2727E+01  0.3859E+02
     17.768  0.2163E+01  0.3865E+02
     17.796  0.2364E+01  0.3871E+02
     17.823  0.2172E+01  0.3877E+02
     17.851  0.1836E+01  0.3882E+02
     17.879  0.1923E+01  0.3888E+02
     17.906  0.1383E+01  0.3891E+02
     17.934  0.2455E+01  0.3898E+02
     17.962  0.3152E+01  0.3907E+02
     17.989  0.3526E+01  0.3917E+02
     18.017  0.3062E+01  0.3925E+02
     18.045  0.2283E+01  0.3932E+02
     18.073  0.2867E+01  0.3940E+02
     18.100  0.2648E+01  0.3947E+02
     18.128  0.2115E+01  0.3953E+02
     18.156  0.2035E+01  0.3958E+02
     18.183  0.1801E+01  0.3963E+02
     18.211  0.1343E+01  0.3967E+02
     18.239  0.1673E+01  0.3972E+02
     18.266  0.1824E+01  0.3977E+02
     18.294  0.2368E+01  0.3983E+02
     18.322  0.2796E+01  0.3991E+02
     18.349  0.2095E+01  0.3997E+02
     18.377  0.2370E+01  0.4003E+02
     18.405  0.1848E+01  0.4008E+02
     18.432  0.1538E+01  0.4013E+02
     18.460  0.2010E+01  0.4018E+02
     18.488  0.1859E+01  0.4023E+02
     18.515  0.2914E+01  0.4031E+02
     18.543  0.1849E+01  0.4037E+02
     18.571  0.2049E+01  0.4042E+02
     18.598  0.3230E+01  0.4051E+02
     18.626  0.2619E+01  0.4058E+02
     18.654  0.2176E+01  0.4064E+02
     18.681  0.2802E+01  0.4072E+02
     18.709  0.2876E+01  0.4080E+02
     18.737  0.3290E+01  0.4089E+02
     18.764  0.2364E+01  0.4096E+02
     18.792  0.2477E+01  0.4103E+02
     18.820  0.2184E+01  0.4109E+02
     18.848  0.2639E+01  0.4116E+02
     18.875  0.2317E+01  0.4122E+02
     18.903  0.3386E+01  0.4132E+02
     18.931  0.2141E+01  0.4138E+02
     18.958  0.2255E+01  0.4144E+02
     18.986  0.2988E+01  0.4152E+02
     19.014  0.2573E+01  0.4159E+02
     19.041  0.2970E+01  0.4168E+02
     19.069  0.2249E+01  0.4174E+02
     19.097  0.2672E+01  0.4181E+02
     19.124  0.3028E+01  0.4190E+02
     19.152  0.3003E+01  0.4198E+02
     19.180  0.2654E+01  0.4205E+02
     19.207  0.2152E+01  0.4211E+02
     19.235  0.2371E+01  0.4218E+02
     19.263  0.2101E+01  0.4224E+02
     19.290  0.2401E+01  0.4230E+02
     19.318  0.1912E+01  0.4236E+02
     19.346  0.1720E+01  0.4240E+02
     19.373  0.2529E+01  0.4247E+02
     19.401  0.2061E+01  0.4253E+02
     19.429  0.3074E+01  0.4262E+02
     19.456  0.2842E+01  0.4269E+02
     19.484  0.3156E+01  0.4278E+02
     19.512  0.3109E+01  0.4287E+02
     19.539  0.2529E+01  0.4294E+02
     19.567  0.2795E+01  0.4301E+02
     19.595  0.2323E+01  0.4308E+02
     19.622  0.4091E+01  0.4319E+02
     19.650  0.2571E+01  0.4326E+02
     19.678  0.2945E+01  0.4335E+02
     19.706  0.2450E+01  0.4341E+02
     19.733  0.2262E+01  0.4348E+02
     19.761  0.2828E+01  0.4355E+02
     19.789  0.3151E+01  0.4364E+02
     19.816  0.3837E+01  0.4375E+02
     19.844  0.2949E+01  0.4383E+02
     19.872  0.2393E+01  0.4389E+02
     19.899  0.3269E+01  0.4399E+02
     19.927  0.2802E+01  0.4406E+02
     19.955  0.2598E+01  0.4413E+02
     19.982  0.2529E+01  0.4420E+02
     20.010  0.4336E+01  0.4432E+02
     20.038  0.4644E+01  0.4445E+02
     20.065  0.5249E+01  0.4460E+02
     20.093  0.4311E+01  0.4472E+02
     20.121  0.2805E+01  0.4480E+02
     20.148  0.3196E+01  0.4488E+02
     20.176  0.1460E+01  0.4492E+02
     20.204  0.2323E+01  0.4499E+02
     20.231  0.2158E+01  0.4505E+02
     20.259  0.2588E+01  0.4512E+02
     20.287  0.2188E+01  0.4518E+02
     20.314  0.2682E+01  0.4526E+02
     20.342  0.2443E+01  0.4532E+02
     20.370  0.3152E+01  0.4541E+02
     20.397  0.2739E+01  0.4549E+02
     20.425  0.2249E+01  0.4555E+02
     20.453  0.2163E+01  0.4561E+02
     20.481  0.2420E+01  0.4567E+02
     20.508  0.1869E+01  0.4573E+02
     20.536  0.1783E+01  0.4578E+02
     20.564  0.1859E+01  0.4583E+02
     20.591  0.2052E+01  0.4588E+02
     20.619  0.2292E+01  0.4595E+02
     20.647  0.1883E+01  0.4600E+02
     20.674  0.2484E+01  0.4607E+02
     20.702  0.2691E+01  0.4614E+02
     20.730  0.3265E+01  0.4623E+02
     20.757  0.1272E+01  0.4627E+02
     20.785  0.1658E+01  0.4631E+02
     20.813  0.1459E+01  0.4635E+02
     20.840  0.2146E+01  0.4641E+02
     20.868  0.2268E+01  0.4648E+02
     20.896  0.2936E+01  0.4656E+02
     20.923  0.2051E+01  0.4661E+02
     20.951  0.2277E+01  0.4668E+02
     20.979  0.2706E+01  0.4675E+02
     21.006  0.2511E+01  0.4682E+02
     21.034  0.2497E+01  0.4689E+02
     21.062  0.1839E+01  0.4694E+02
     21.089  0.2856E+01  0.4702E+02
     21.117  0.3558E+01  0.4712E+02
     21.145  0.3053E+01  0.4720E+02
     21.172  0.3275E+01  0.4730E+02
     21.200  0.2887E+01  0.4737E+02
     21.228  0.2857E+01  0.4745E+02
     21.255  0.3615E+01  0.4755E+02
     21.283  0.3653E+01  0.4766E+02
     21.311  0.2536E+01  0.4773E+02
     21.339  0.3871E+01  0.4783E+02
     21.366  0.3081E+01  0.4792E+02
     21.394  0.3059E+01  0.4800E+02
     21.422  0.3111E+01  0.4809E+02
     21.449  0.3655E+01  0.4819E+02
     21.477  0.3509E+01  0.4829E+02
     21.505  0.3250E+01  0.4838E+02
     21.532  0.2663E+01  0.4845E+02
     21.560  0.2990E+01  0.4853E+02
     21.588  0.2103E+01  0.4859E+02
     21.615  0.1761E+01  0.4864E+02
     21.643  0.3850E+01  0.4875E+02
     21.671  0.2312E+01  0.4881E+02
     21.698  0.2213E+01  0.4887E+02
     21.726  0.3189E+01  0.4896E+02
     21.754  0.4368E+01  0.4908E+02
     21.781  0.5110E+01  0.4922E+02
     21.809  0.4734E+01  0.4935E+02
     21.837  0.2689E+01  0.4943E+02
     21.864  0.3177E+01  0.4952E+02
     21.892  0.3368E+01  0.4961E+02
     21.920  0.3433E+01  0.4970E+02
     21.947  0.3123E+01  0.4979E+02
     21.975  0.2788E+01  0.4987E+02
     22.003  0.1967E+01  0.4992E+02
     22.030  0.2066E+01  0.4998E+02
     22.058  0.3656E+01  0.5008E+02
     22.086  0.4330E+01  0.5020E+02
     22.114  0.3170E+01  0.5029E+02
     22.141  0.2695E+01  0.5036E+02
     22.169  0.2452E+01  0.5043E+02
     22.197  0.3284E+01  0.5052E+02
     22.224  0.2663E+01  0.5060E+02
     22.252  0.2064E+01  0.5065E+02
     22.280  0.1814E+01  0.5070E+02
     22.307  0.2549E+01  0.5077E+02
     22.335  0.2848E+01  0.5085E+02
     22.363  0.3079E+01  0.5094E+02
     22.390  0.2835E+01  0.5102E+02
     22.418  0.2186E+01  0.5108E+02
     22.446  0.3398E+01  0.5117E+02
     22.473  0.1920E+01  0.5122E+02
     22.501  0.2685E+01  0.5130E+02
     22.529  0.3263E+01  0.5139E+02
     22.556  0.2761E+01  0.5146E+02
     22.584  0.2124E+01  0.5152E+02
     22.612  0.3217E+01  0.5161E+02
     22.639  0.1777E+01  0.5166E+02
     22.667  0.2027E+01  0.5172E+02
     22.695  0.2463E+01  0.5179E+02
     22.722  0.3156E+01  0.5187E+02
     22.750  0.3296E+01  0.5196E+02
     22.778  0.2882E+01  0.5204E+02
     22.805  0.2977E+01  0.5213E+02
     22.833  0.2708E+01  0.5220E+02
     22.861  0.2024E+01  0.5226E+02
     22.888  0.2288E+01  0.5232E+02
     22.916  0.2330E+01  0.5239E+02
     22.944  0.1381E+01  0.5242E+02
     22.972  0.1756E+01  0.5247E+02
     22.999  0.2501E+01  0.5254E+02
     23.027  0.3620E+01  0.5264E+02
     23.055  0.3986E+01  0.5275E+02
     23.082  0.2404E+01  0.5282E+02
     23.110  0.2453E+01  0.5289E+02
     23.138  0.2996E+01  0.5297E+02
     23.165  0.3809E+01  0.5307E+02
     23.193  0.2427E+01  0.5314E+02
     23.221  0.4071E+01  0.5325E+02
     23.248  0.2927E+01  0.5334E+02
     23.276  0.2565E+01  0.5341E+02
     23.304  0.2130E+01  0.5347E+02
     23.331  0.3676E+01  0.5357E+02
     23.359  0.2164E+01  0.5363E+02
     23.387  0.2502E+01  0.5370E+02
     23.414  0.2328E+01  0.5376E+02
     23.442  0.2567E+01  0.5383E+02
     23.470  0.2917E+01  0.5391E+02
     23.497  0.2762E+01  0.5399E+02
     23.525  0.2280E+01  0.5405E+02
     23.553  0.4056E+01  0.5416E+02
     23.580  0.3590E+01  0.5426E+02
     23.608  0.2553E+01  0.5433E+02
     23.636  0.3167E+01  0.5442E+02
     23.663  0.2466E+01  0.5449E+02
     23.691  0.3745E+01  0.5459E+02
     23.719  0.4094E+01  0.5471E+02
     23.747  0.3472E+01  0.5480E+02
     23.774  0.3205E+01  0.5489E+02
     23.802  0.4440E+01  0.5501E+02
     23.830  0.4409E+01  0.5514E+02
     23.857  0.4078E+01  0.5525E+02
     23.885  0.3163E+01  0.5534E+02
     23.913  0.3576E+01  0.5544E+02
     23.940  0.3046E+01  0.5552E+02
     23.968  0.3078E+01  0.5561E+02
     23.996  0.3065E+01  0.5569E+02
     24.023  0.3104E+01  0.5578E+02
     24.051  0.3438E+01  0.5587E+02
     24.079  0.3222E+01  0.5596E+02
     24.106  0.2154E+01  0.5602E+02
     24.134  0.2070E+01  0.5608E+02
     24.162  0.2547E+01  0.5615E+02
     24.189  0.3055E+01  0.5623E+02
     24.217  0.2990E+01  0.5632E+02
     24.245  0.2310E+01  0.5638E+02
     24.272  0.2905E+01  0.5646E+02
     24.300  0.3454E+01  0.5656E+02
     24.328  0.3226E+01  0.5664E+02
     24.355  0.3021E+01  0.5673E+02
     24.383  0.2483E+01  0.5680E+02
     24.411  0.2483E+01  0.5687E+02
     24.438  0.2874E+01  0.5695E+02
     24.466  0.3181E+01  0.5703E+02
     24.494  0.2904E+01  0.5711E+02
     24.522  0.3288E+01  0.5720E+02
     24.549  0.3261E+01  0.5730E+02
     24.577  0.2593E+01  0.5737E+02
     24.605  0.3742E+01  0.5747E+02
     24.632  0.3203E+01  0.5756E+02
     24.660  0.3068E+01  0.5764E+02
     24.688  0.2255E+01  0.5771E+02
     24.715  0.1597E+01  0.5775E+02
     24.743  0.1245E+01  0.5779E+02
     24.771  0.3518E+01  0.5788E+02
     24.798  0.3267E+01  0.5797E+02
     24.826  0.2162E+01  0.5803E+02
     24.854  0.2405E+01  0.5810E+02
     24.881  0.3309E+01  0.5819E+02
     24.909  0.3468E+01  0.5829E+02
     24.937  0.3786E+01  0.5839E+02
     24.964  0.2531E+01  0.5846E+02
     24.992  0.2358E+01  0.5853E+02
     25.020  0.3309E+01  0.5862E+02
     25.047  0.2876E+01  0.5870E+02
     25.075  0.2984E+01  0.5878E+02
     25.103  0.2495E+01  0.5885E+02
     25.130  0.3362E+01  0.5894E+02
     25.158  0.2938E+01  0.5902E+02
     25.186  0.2324E+01  0.5909E+02
     25.213  0.4075E+01  0.5920E+02
     25.241  0.2702E+01  0.5928E+02
     25.269  0.2525E+01  0.5935E+02
     25.296  0.1776E+01  0.5940E+02
     25.324  0.3182E+01  0.5948E+02
     25.352  0.2381E+01  0.5955E+02
     25.380  0.3192E+01  0.5964E+02
     25.407  0.3716E+01  0.5974E+02
     25.435  0.3850E+01  0.5985E+02
     25.463  0.2697E+01  0.5992E+02
     25.490  0.3375E+01  0.6001E+02
     25.518  0.2370E+01  0.6008E+02
     25.546  0.2512E+01  0.6015E+02
     25.573  0.2432E+01  0.6022E+02
     25.601  0.2888E+01  0.6030E+02
     25.629  0.2217E+01  0.6036E+02
     25.656  0.1912E+01  0.6041E+02
     25.684  0.3499E+01  0.6051E+02
     25.712  0.2418E+01  0.6058E+02
     25.739  0.1629E+01  0.6062E+02
     25.767  0.3491E+01  0.6072E+02
     25.795  0.2455E+01  0.6079E+02
     25.822  0.2439E+01  0.6085E+02
     25.850  0.2514E+01  0.6092E+02
     25.878  0.2967E+01  0.6100E+02
     25.905  0.3479E+01  0.6110E+02
     25.933  0.3518E+01  0.6120E+02
     25.961  0.2282E+01  0.6126E+02
     25.988  0.2530E+01  0.6133E+02
     26.016  0.2375E+01  0.6140E+02
     26.044  0.1459E+01  0.6144E+02
     26.071  0.1678E+01  0.6148E+02
     26.099  0.3491E+01  0.6158E+02
     26.127  0.2325E+01  0.6164E+02
     26.155  0.1770E+01  0.6169E+02
     26.182  0.2884E+01  0.6177E+02
     26.210  0.1765E+01  0.6182E+02
     26.238  0.1606E+01  0.6187E+02
     26.265  0.1259E+01  0.6190E+02
     26.293  0.3175E+01  0.6199E+02
     26.321  0.1698E+01  0.6204E+02
     26.348  0.2258E+01  0.6210E+02
     26.376  0.2300E+01  0.6216E+02
     26.404  0.1442E+01  0.6220E+02
     26.431  0.2934E+01  0.6228E+02
     26.459  0.2538E+01  0.6235E+02
     26.487  0.1643E+01  0.6240E+02
     26.514  0.1919E+01  0.6245E+02
     26.542  0.1592E+01  0.6250E+02
     26.570  0.2193E+01  0.6256E+02
     26.597  0.2234E+01  0.6262E+02
     26.625  0.2889E+01  0.6270E+02
     26.653  0.2799E+01  0.6278E+02
     26.680  0.3033E+01  0.6286E+02
     26.708  0.3878E+01  0.6297E+02
     26.736  0.4793E+01  0.6310E+02
     26.763  0.2678E+01  0.6317E+02
     26.791  0.2365E+01  0.6324E+02
     26.819  0.4020E+01  0.6335E+02
     26.846  0.3497E+01  0.6345E+02
     26.874  0.3536E+01  0.6355E+02
     26.902  0.3175E+01  0.6363E+02
     26.929  0.3400E+01  0.6373E+02
     26.957  0.3113E+01  0.6381E+02
     26.985  0.4156E+01  0.6393E+02
     27.013  0.2330E+01  0.6399E+02
     27.040  0.2353E+01  0.6406E+02
     27.068  0.3395E+01  0.6415E+02
     27.096  0.4153E+01  0.6427E+02
     27.123  0.3432E+01  0.6436E+02
     27.151  0.4329E+01  0.6448E+02
     27.179  0.2489E+01  0.6455E+02
     27.206  0.3226E+01  0.6464E+02
     27.234  0.3438E+01  0.6474E+02
     27.262  0.1437E+01  0.6478E+02
     27.289  0.2585E+01  0.6485E+02
     27.317  0.2559E+01  0.6492E+02
     27.345  0.2822E+01  0.6500E+02
     27.372  0.3376E+01  0.6509E+02
     27.400  0.3154E+01  0.6518E+02
     27.428  0.2917E+01  0.6526E+02
     27.455  0.3007E+01  0.6534E+02
     27.483  0.2155E+01  0.6540E+02
     27.511  0.3268E+01  0.6549E+02
     27.538  0.3539E+01  0.6559E+02
     27.566  0.2971E+01  0.6567E+02
     27.594  0.2566E+01  0.6574E+02
     27.621  0.2238E+01  0.6580E+02
     27.649  0.2540E+01  0.6587E+02
     27.677  0.2493E+01  0.6594E+02
     27.704  0.2451E+01  0.6601E+02
     27.732  0.2246E+01  0.6607E+02
     27.760  0.1288E+01  0.6611E+02
     27.788  0.1717E+01  0.6616E+02
     27.815  0.2007E+01  0.6621E+02
     27.843  0.2886E+01  0.6629E+02
     27.871  0.3486E+01  0.6639E+02
     27.898  0.2902E+01  0.6647E+02
     27.926  0.2574E+01  0.6654E+02
     27.954  0.3448E+01  0.6664E+02
     27.981  0.2939E+01  0.6672E+02
     28.009  0.2803E+01  0.6679E+02
     28.037  0.2785E+01  0.6687E+02
     28.064  0.3391E+01  0.6697E+02
     28.092  0.1224E+01  0.6700E+02
     28.120  0.3095E+01  0.6708E+02
     28.147  0.2769E+01  0.6716E+02
     28.175  0.2551E+01  0.6723E+02
     28.203  0.2520E+01  0.6730E+02
     28.230  0.1637E+01  0.6735E+02
     28.258  0.2702E+01  0.6742E+02
     28.286  0.1414E+01  0.6746E+02
     28.313  0.2453E+01  0.6753E+02
     28.341  0.2550E+01  0.6760E+02
     28.369  0.2125E+01  0.6766E+02
     28.396  0.2838E+01  0.6774E+02
     28.424  0.4440E+01  0.6786E+02
     28.452  0.3716E+01  0.6796E+02
     28.479  0.3342E+01  0.6806E+02
     28.507  0.2915E+01  0.6814E+02
     28.535  0.1878E+01  0.6819E+02
     28.562  0.3296E+01  0.6828E+02
     28.590  0.2412E+01  0.6835E+02
     28.618  0.3071E+01  0.6843E+02
     28.646  0.1644E+01  0.6848E+02
     28.673  0.3161E+01  0.6856E+02
     28.701  0.2183E+01  0.6862E+02
     28.729  0.2849E+01  0.6870E+02
     28.756  0.2099E+01  0.6876E+02
     28.784  0.2585E+01  0.6883E+02
     28.812  0.1931E+01  0.6889E+02
     28.839  0.2813E+01  0.6896E+02
     28.867  0.4375E+01  0.6909E+02
     28.895  0.3287E+01  0.6918E+02
     28.922  0.3269E+01  0.6927E+02
     28.950  0.3392E+01  0.6936E+02
     28.978  0.2634E+01  0.6943E+02
     29.005  0.3666E+01  0.6953E+02
     29.033  0.2840E+01  0.6961E+02
     29.061  0.3586E+01  0.6971E+02
     29.088  0.2807E+01  0.6979E+02
     29.116  0.3375E+01  0.6988E+02
     29.144  0.3231E+01  0.6997E+02
     29.171  0.1874E+01  0.7003E+02
     29.199  0.2221E+01  0.7009E+02
     29.227  0.3052E+01  0.7017E+02
     29.254  0.3273E+01  0.7026E+02
     29.282  0.1957E+01  0.7032E+02
     29.310  0.2637E+01  0.7039E+02
     29.337  0.3714E+01  0.7049E+02
     29.365  0.3742E+01  0.7060E+02
     29.393  0.3242E+01  0.7069E+02
     29.421  0.2451E+01  0.7075E+02
     29.448  0.3027E+01  0.7084E+02
     29.476  0.3427E+01  0.7093E+02
     29.504  0.2903E+01  0.7101E+02
     29.531  0.1872E+01  0.7106E+02
     29.559  0.3020E+01  0.7115E+02
     29.587  0.2935E+01  0.7123E+02
     29.614  0.2477E+01  0.7130E+02
     29.642  0.2522E+01  0.7137E+02
     29.670  0.2404E+01  0.7143E+02
     29.697  0.2091E+01  0.7149E+02
     29.725  0.2332E+01  0.7156E+02
     29.753  0.2244E+01  0.7162E+02
     29.780  0.3301E+01  0.7171E+02
     29.808  0.2646E+01  0.7178E+02
     29.836  0.3013E+01  0.7187E+02
     29.863  0.3152E+01  0.7195E+02
     29.891  0.3268E+01  0.7204E+02
     29.919  0.2942E+01  0.7213E+02
     29.946  0.1826E+01  0.7218E+02
     29.974  0.3720E+01  0.7228E+02
     30.002  0.3166E+01  0.7237E+02
     30.029  0.2325E+01  0.7243E+02
     30.057  0.2161E+01  0.7249E+02
     30.085  0.3595E+01  0.7259E+02
     30.112  0.2547E+01  0.7266E+02
     30.140  0.2378E+01  0.7273E+02
     30.168  0.2527E+01  0.7280E+02
     30.195  0.3029E+01  0.7288E+02
     30.223  0.2406E+01  0.7295E+02
     30.251  0.3806E+01  0.7305E+02
     30.279  0.3710E+01  0.7315E+02
     30.306  0.2841E+01  0.7323E+02
     30.334  0.3019E+01  0.7332E+02
     30.362  0.3608E+01  0.7342E+02
     30.389  0.2980E+01  0.7350E+02
     30.417  0.2212E+01  0.7356E+02
     30.445  0.2823E+01  0.7364E+02
     30.472  0.2421E+01  0.7371E+02
     30.500  0.2663E+01  0.7378E+02
     30.528  0.3193E+01  0.7387E+02
     30.555  0.4176E+01  0.7398E+02
     30.583  0.3311E+01  0.7407E+02
     30.611  0.3158E+01  0.7416E+02
     30.638  0.3195E+01  0.7425E+02
     30.666  0.3051E+01  0.7434E+02
     30.694  0.3560E+01  0.7443E+02
     30.721  0.2713E+01  0.7451E+02
     30.749  0.3835E+01  0.7461E+02
     30.777  0.3698E+01  0.7472E+02
     30.804  0.3012E+01  0.7480E+02
     30.832  0.3196E+01  0.7489E+02
     30.860  0.2341E+01  0.7495E+02
     30.887  0.4488E+01  0.7508E+02
     30.915  0.3473E+01  0.7517E+02
     30.943  0.2152E+01  0.7523E+02
     30.970  0.2952E+01  0.7532E+02
     30.998  0.4063E+01  0.7543E+02
     31.026  0.2527E+01  0.7550E+02
     31.054  0.2773E+01  0.7557E+02
     31.081  0.3816E+01  0.7568E+02
     31.109  0.2181E+01  0.7574E+02
     31.137  0.3544E+01  0.7584E+02
     31.164  0.2705E+01  0.7591E+02
     31.192  0.2904E+01  0.7599E+02
     31.220  0.2117E+01  0.7605E+02
     31.247  0.2751E+01  0.7613E+02
     31.275  0.4166E+01  0.7624E+02
     31.303  0.1989E+01  0.7630E+02
     31.330  0.1846E+01  0.7635E+02
     31.358  0.2432E+01  0.7642E+02
     31.386  0.2108E+01  0.7648E+02
     31.413  0.2793E+01  0.7655E+02
     31.441  0.3111E+01  0.7664E+02
     31.469  0.2673E+01  0.7671E+02
     31.496  0.2840E+01  0.7679E+02
     31.524  0.2588E+01  0.7686E+02
     31.552  0.3161E+01  0.7695E+02
     31.579  0.3394E+01  0.7704E+02
     31.607  0.2496E+01  0.7711E+02
     31.635  0.2937E+01  0.7720E+02
     31.662  0.2378E+01  0.7726E+02
     31.690  0.2146E+01  0.7732E+02
     31.718  0.3279E+01  0.7741E+02
     31.745  0.4050E+01  0.7752E+02
     31.773  0.2746E+01  0.7760E+02
     31.801  0.1455E+01  0.7764E+02
     31.829  0.2681E+01  0.7771E+02
     31.856  0.3208E+01  0.7780E+02
     31.884  0.2919E+01  0.7788E+02
     31.912  0.3778E+01  0.7799E+02
     31.939  0.3179E+01  0.7808E+02
     31.967  0.2988E+01  0.7816E+02
     31.995  0.3393E+01  0.7825E+02
     32.022  0.3397E+01  0.7835E+02
     32.050  0.2798E+01  0.7842E+02
     32.078  0.2890E+01  0.7850E+02
     32.105  0.4665E+01  0.7863E+02
     32.133  0.3529E+01  0.7873E+02
     32.161  0.3515E+01  0.7883E+02
     32.188  0.3924E+01  0.7894E+02
     32.216  0.4536E+01  0.7906E+02
     32.244  0.4138E+01  0.7918E+02
     32.271  0.4419E+01  0.7930E+02
     32.299  0.6056E+01  0.7947E+02
     32.327  0.4690E+01  0.7960E+02
     32.354  0.2388E+01  0.7966E+02
     32.382  0.3233E+01  0.7975E+02
     32.410  0.4705E+01  0.7988E+02
     32.437  0.3941E+01  0.7999E+02
     32.465  0.4371E+01  0.8011E+02
     32.493  0.3724E+01  0.8022E+02
     32.520  0.3812E+01  0.8032E+02
     32.548  0.2813E+01  0.8040E+02
     32.576  0.3951E+01  0.8051E+02
     32.603  0.4541E+01  0.8063E+02
     32.631  0.3556E+01  0.8073E+02
     32.659  0.3798E+01  0.8084E+02
     32.687  0.3978E+01  0.8095E+02
     32.714  0.3359E+01  0.8104E+02
     32.742  0.3593E+01  0.8114E+02
     32.770  0.2972E+01  0.8122E+02
     32.797  0.3084E+01  0.8131E+02
     32.825  0.2793E+01  0.8138E+02
     32.853  0.2983E+01  0.8147E+02
     32.880  0.2549E+01  0.8154E+02
     32.908  0.2659E+01  0.8161E+02
     32.936  0.3535E+01  0.8171E+02
     32.963  0.2190E+01  0.8177E+02
     32.991  0.1569E+01  0.8181E+02
     33.019  0.2505E+01  0.8188E+02
     33.046  0.2771E+01  0.8196E+02
     33.074  0.3009E+01  0.8204E+02
     33.102  0.3843E+01  0.8215E+02
     33.129  0.2092E+01  0.8221E+02
     33.157  0.2326E+01  0.8227E+02
     33.185  0.2147E+01  0.8233E+02
     33.212  0.2672E+01  0.8240E+02
     33.240  0.1854E+01  0.8246E+02
     33.268  0.1719E+01  0.8250E+02
     33.295  0.2985E+01  0.8259E+02
     33.323  0.1977E+01  0.8264E+02
     33.351  0.3234E+01  0.8273E+02
     33.378  0.2870E+01  0.8281E+02
     33.406  0.2977E+01  0.8289E+02
     33.434  0.3322E+01  0.8298E+02
     33.462  0.2819E+01  0.8306E+02
     33.489  0.3921E+01  0.8317E+02
     33.517  0.3298E+01  0.8326E+02
     33.545  0.1885E+01  0.8331E+02
     33.572  0.2187E+01  0.8337E+02
     33.600  0.3871E+01  0.8348E+02
     33.628  0.3661E+01  0.8358E+02
     33.655  0.2623E+01  0.8366E+02
     33.683  0.2656E+01  0.8373E+02
     33.711  0.1487E+01  0.8377E+02
     33.738  0.2637E+01  0.8384E+02
     33.766  0.2025E+01  0.8390E+02
     33.794  0.2092E+01  0.8396E+02
     33.821  0.2113E+01  0.8402E+02
     33.849  0.2458E+01  0.8408E+02
     33.877  0.3174E+01  0.8417E+02
     33.904  0.2990E+01  0.8425E+02
     33.932  0.2762E+01  0.8433E+02
     33.960  0.3472E+01  0.8443E+02
     33.987  0.2590E+01  0.8450E+02
     34.015  0.2483E+01  0.8457E+02
     34.043  0.3051E+01  0.8465E+02
     34.070  0.2518E+01  0.8472E+02
     34.098  0.2913E+01  0.8480E+02
     34.126  0.3215E+01  0.8489E+02
     34.153  0.2836E+01  0.8497E+02
     34.181  0.3164E+01  0.8506E+02
     34.209  0.1877E+01  0.8511E+02
     34.236  0.1961E+01  0.8516E+02
     34.264  0.3978E+01  0.8527E+02
     34.292  0.2191E+01  0.8533E+02
     34.320  0.2633E+01  0.8541E+02
     34.347  0.2526E+01  0.8548E+02
     34.375  0.3404E+01  0.8557E+02
     34.403  0.2931E+01  0.8565E+02
     34.430  0.3261E+01  0.8574E+02
     34.458  0.4284E+01  0.8586E+02
     34.486  0.3077E+01  0.8595E+02
     34.513  0.2339E+01  0.8601E+02
     34.541  0.3411E+01  0.8611E+02
     34.569  0.2515E+01  0.8618E+02
     34.596  0.2162E+01  0.8623E+02
     34.624  0.2097E+01  0.8629E+02
     34.652  0.2766E+01  0.8637E+02
     34.679  0.3624E+01  0.8647E+02
     34.707  0.4569E+01  0.8660E+02
     34.735  0.2897E+01  0.8668E+02
     34.762  0.3808E+01  0.8678E+02
     34.790  0.4107E+01  0.8690E+02
     34.818  0.4731E+01  0.8703E+02
     34.845  0.3674E+01  0.8713E+02
     34.873  0.3487E+01  0.8722E+02
     34.901  0.4027E+01  0.8734E+02
     34.928  0.3227E+01  0.8743E+02
     34.956  0.3382E+01  0.8752E+02
     34.984  0.3818E+01  0.8762E+02
     35.011  0.3219E+01  0.8771E+02
     35.039  0.3520E+01  0.8781E+02
     35.067  0.2871E+01  0.8789E+02
     35.095  0.2796E+01  0.8797E+02
     35.122  0.3019E+01  0.8805E+02
     35.150  0.4583E+01  0.8818E+02
     35.178  0.3608E+01  0.8828E+02
     35.205  0.3341E+01  0.8837E+02
     35.233  0.3543E+01  0.8847E+02
     35.261  0.2621E+01  0.8854E+02
     35.288  0.3734E+01  0.8864E+02
     35.316  0.3745E+01  0.8875E+02
     35.344  0.2990E+01  0.8883E+02
     35.371  0.3556E+01  0.8893E+02
     35.399  0.3834E+01  0.8904E+02
     35.427  0.3550E+01  0.8913E+02
     35.454  0.2862E+01  0.8921E+02
     35.482  0.3512E+01  0.8931E+02
     35.510  0.3714E+01  0.8941E+02
     35.537  0.3965E+01  0.8952E+02
     35.565  0.3495E+01  0.8962E+02
     35.593  0.3532E+01  0.8972E+02
     35.620  0.3745E+01  0.8982E+02
     35.648  0.3474E+01  0.8992E+02
     35.676  0.3173E+01  0.9001E+02
     35.703  0.3411E+01  0.9010E+02
     35.731  0.3217E+01  0.9019E+02
     35.759  0.2479E+01  0.9026E+02
     35.786  0.3849E+01  0.9036E+02
     35.814  0.3561E+01  0.9046E+02
     35.842  0.5665E+01  0.9062E+02
     35.869  0.3916E+01  0.9073E+02
     35.897  0.4849E+01  0.9086E+02
     35.925  0.3818E+01  0.9097E+02
     35.953  0.3266E+01  0.9106E+02
     35.980  0.2235E+01  0.9112E+02
     36.008  0.3309E+01  0.9121E+02
     36.036  0.2613E+01  0.9128E+02
     36.063  0.3525E+01  0.9138E+02
     36.091  0.4451E+01  0.9150E+02
     36.119  0.4149E+01  0.9162E+02
     36.146  0.3432E+01  0.9171E+02
     36.174  0.2900E+01  0.9179E+02
     36.202  0.3911E+01  0.9190E+02
     36.229  0.3849E+01  0.9201E+02
     36.257  0.3525E+01  0.9211E+02
     36.285  0.1849E+01  0.9216E+02
     36.312  0.3164E+01  0.9225E+02
     36.340  0.3625E+01  0.9235E+02
     36.368  0.4489E+01  0.9247E+02
     36.395  0.3451E+01  0.9257E+02
     36.423  0.3454E+01  0.9266E+02
     36.451  0.3086E+01  0.9275E+02
     36.478  0.2155E+01  0.9281E+02
     36.506  0.3505E+01  0.9290E+02
     36.534  0.2955E+01  0.9299E+02
     36.561  0.2329E+01  0.9305E+02
     36.589  0.2944E+01  0.9313E+02
     36.617  0.1938E+01  0.9318E+02
     36.644  0.3524E+01  0.9328E+02
     36.672  0.2615E+01  0.9335E+02
     36.700  0.3087E+01  0.9344E+02
     36.728  0.3956E+01  0.9355E+02
     36.755  0.3230E+01  0.9364E+02
     36.783  0.2503E+01  0.9371E+02
     36.811  0.3778E+01  0.9381E+02
     36.838  0.2903E+01  0.9389E+02
     36.866  0.2738E+01  0.9397E+02
     36.894  0.3539E+01  0.9407E+02
     36.921  0.3538E+01  0.9416E+02
     36.949  0.2591E+01  0.9424E+02
     36.977  0.2449E+01  0.9430E+02
     37.004  0.2014E+01  0.9436E+02
     37.032  0.2445E+01  0.9443E+02
     37.060  0.3812E+01  0.9453E+02
     37.087  0.3721E+01  0.9464E+02
     37.115  0.2618E+01  0.9471E+02
     37.143  0.3682E+01  0.9481E+02
     37.170  0.3391E+01  0.9490E+02
     37.198  0.2992E+01  0.9499E+02
     37.226  0.4112E+01  0.9510E+02
     37.253  0.2412E+01  0.9517E+02
     37.281  0.3863E+01  0.9527E+02
     37.309  0.3734E+01  0.9538E+02
     37.336  0.2768E+01  0.9545E+02
     37.364  0.3941E+01  0.9556E+02
     37.392  0.4227E+01  0.9568E+02
     37.419  0.3450E+01  0.9578E+02
     37.447  0.4434E+01  0.9590E+02
     37.475  0.2904E+01  0.9598E+02
     37.503  0.3084E+01  0.9606E+02
     37.530  0.2369E+01  0.9613E+02
     37.558  0.2755E+01  0.9621E+02
     37.586  0.2777E+01  0.9628E+02
     37.613  0.3598E+01  0.9638E+02
     37.641  0.3744E+01  0.9649E+02
     37.669  0.3048E+01  0.9657E+02
     37.696  0.3007E+01  0.9665E+02
     37.724  0.2522E+01  0.9672E+02
     37.752  0.4365E+01  0.9684E+02
     37.779  0.2607E+01  0.9692E+02
     37.807  0.2390E+01  0.9698E+02
     37.835  0.4082E+01  0.9710E+02
     37.862  0.3634E+01  0.9720E+02
     37.890  0.4005E+01  0.9731E+02
     37.918  0.2534E+01  0.9738E+02
     37.945  0.2252E+01  0.9744E+02
     37.973  0.3896E+01  0.9755E+02
     38.001  0.3361E+01  0.9764E+02
     38.028  0.3580E+01  0.9774E+02
     38.056  0.2625E+01  0.9781E+02
     38.084  0.2399E+01  0.9788E+02
     38.111  0.3476E+01  0.9798E+02
     38.139  0.3414E+01  0.9807E+02
     38.167  0.2892E+01  0.9815E+02
     38.194  0.3739E+01  0.9825E+02
     38.222  0.4172E+01  0.9837E+02
     38.250  0.3398E+01  0.9846E+02
     38.277  0.2952E+01  0.9854E+02
     38.305  0.2914E+01  0.9863E+02
     38.333  0.3625E+01  0.9873E+02
     38.361  0.2784E+01  0.9880E+02
     38.388  0.2441E+01  0.9887E+02
     38.416  0.2585E+01  0.9894E+02
     38.444  0.3187E+01  0.9903E+02
     38.471  0.3683E+01  0.9913E+02
     38.499  0.3390E+01  0.9923E+02
     38.527  0.3404E+01  0.9932E+02
     38.554  0.2570E+01  0.9939E+02
     38.582  0.3029E+01  0.9947E+02
     38.610  0.3309E+01  0.9957E+02
     38.637  0.3712E+01  0.9967E+02
     38.665  0.2208E+01  0.9973E+02
     38.693  0.2753E+01  0.9981E+02
     38.720  0.3354E+01  0.9990E+02
     38.748  0.3323E+01  0.9999E+02
     38.776  0.3449E+01  0.1001E+03
     38.803  0.3056E+01  0.1002E+03
     38.831  0.3178E+01  0.1003E+03
     38.859  0.3582E+01  0.1004E+03
     38.886  0.3907E+01  0.1005E+03
     38.914  0.3180E+01  0.1006E+03
     38.942  0.3075E+01  0.1006E+03
     38.969  0.3435E+01  0.1007E+03
     38.997  0.3871E+01  0.1008E+03
     39.025  0.2301E+01  0.1009E+03
     39.052  0.3536E+01  0.1010E+03
     39.080  0.3757E+01  0.1011E+03
     39.108  0.2641E+01  0.1012E+03
     39.136  0.2937E+01  0.1013E+03
     39.163  0.2858E+01  0.1013E+03
     39.191  0.3682E+01  0.1014E+03
     39.219  0.2692E+01  0.1015E+03
     39.246  0.2779E+01  0.1016E+03
     39.274  0.4700E+01  0.1017E+03
     39.302  0.4986E+01  0.1019E+03
     39.329  0.4327E+01  0.1020E+03
     39.357  0.3399E+01  0.1021E+03
     39.385  0.3309E+01  0.1022E+03
     39.412  0.3346E+01  0.1023E+03
     39.440  0.4551E+01  0.1024E+03
     39.468  0.4912E+01  0.1025E+03
     39.495  0.3903E+01  0.1026E+03
     39.523  0.3880E+01  0.1027E+03
     39.551  0.2941E+01  0.1028E+03
     39.578  0.3059E+01  0.1029E+03
     39.606  0.3498E+01  0.1030E+03
     39.634  0.3752E+01  0.1031E+03
     39.661  0.3667E+01  0.1032E+03
     39.689  0.3517E+01  0.1033E+03
     39.717  0.3435E+01  0.1034E+03
     39.744  0.3635E+01  0.1035E+03
     39.772  0.3751E+01  0.1036E+03
     39.800  0.3495E+01  0.1037E+03
     39.827  0.2735E+01  0.1038E+03
     39.855  0.4178E+01  0.1039E+03
     39.883  0.4598E+01  0.1040E+03
     39.910  0.4462E+01  0.1041E+03
     39.938  0.3457E+01  0.1042E+03
     39.966  0.3875E+01  0.1043E+03
     39.994  0.2417E+01  0.1044E+03
     40.021  0.3301E+01  0.1045E+03
     40.049  0.2961E+01  0.1046E+03
     40.077  0.3298E+01  0.1047E+03
     40.104  0.3545E+01  0.1048E+03
     40.132  0.4376E+01  0.1049E+03
     40.160  0.2214E+01  0.1050E+03
     40.187  0.3108E+01  0.1050E+03
     40.215  0.4680E+01  0.1052E+03
     40.243  0.4804E+01  0.1053E+03
     40.270  0.3341E+01  0.1054E+03
     40.298  0.3681E+01  0.1055E+03
     40.326  0.4827E+01  0.1056E+03
     40.353  0.5553E+01  0.1058E+03
     40.381  0.4659E+01  0.1059E+03
     40.409  0.3975E+01  0.1060E+03
     40.436  0.3318E+01  0.1061E+03
     40.464  0.4298E+01  0.1062E+03
     40.492  0.4835E+01  0.1064E+03
     40.519  0.3884E+01  0.1065E+03
     40.547  0.3297E+01  0.1066E+03
     40.575  0.2790E+01  0.1066E+03
     40.602  0.3238E+01  0.1067E+03
     40.630  0.5614E+01  0.1069E+03
     40.658  0.5035E+01  0.1070E+03
     40.685  0.4993E+01  0.1072E+03
     40.713  0.4921E+01  0.1073E+03
     40.741  0.3612E+01  0.1074E+03
     40.769  0.4098E+01  0.1075E+03
     40.796  0.5278E+01  0.1077E+03
     40.824  0.4458E+01  0.1078E+03
     40.852  0.2397E+01  0.1079E+03
     40.879  0.2513E+01  0.1079E+03
     40.907  0.2832E+01  0.1080E+03
     40.935  0.3829E+01  0.1081E+03
     40.962  0.4010E+01  0.1082E+03
     40.990  0.4716E+01  0.1083E+03
     41.018  0.4824E+01  0.1085E+03
     41.045  0.3238E+01  0.1086E+03
     41.073  0.3569E+01  0.1087E+03
     41.101  0.3508E+01  0.1088E+03
     41.128  0.4478E+01  0.1089E+03
     41.156  0.4255E+01  0.1090E+03
     41.184  0.5395E+01  0.1092E+03
     41.211  0.3390E+01  0.1093E+03
     41.239  0.5515E+01  0.1094E+03
     41.267  0.5253E+01  0.1096E+03
     41.294  0.4194E+01  0.1097E+03
     41.322  0.3984E+01  0.1098E+03
     41.350  0.3620E+01  0.1099E+03
     41.377  0.2899E+01  0.1100E+03
     41.405  0.4364E+01  0.1101E+03
     41.433  0.3947E+01  0.1102E+03
     41.460  0.4679E+01  0.1103E+03
     41.488  0.4978E+01  0.1105E+03
     41.516  0.4254E+01  0.1106E+03
     41.543  0.3307E+01  0.1107E+03
     41.571  0.4636E+01  0.1108E+03
     41.599  0.5070E+01  0.1109E+03
     41.627  0.3455E+01  0.1110E+03
     41.654  0.2876E+01  0.1111E+03
     41.682  0.3199E+01  0.1112E+03
     41.710  0.3379E+01  0.1113E+03
     41.737  0.3497E+01  0.1114E+03
     41.765  0.3152E+01  0.1115E+03
     41.793  0.3464E+01  0.1116E+03
     41.820  0.2897E+01  0.1117E+03
     41.848  0.2388E+01  0.1117E+03
     41.876  0.3430E+01  0.1118E+03
     41.903  0.2681E+01  0.1119E+03
     41.931  0.3661E+01  0.1120E+03
     41.959  0.3738E+01  0.1121E+03
     41.986  0.3557E+01  0.1122E+03
     42.014  0.3154E+01  0.1123E+03
     42.042  0.2539E+01  0.1123E+03
     42.069  0.3473E+01  0.1124E+03
     42.097  0.3775E+01  0.1125E+03
     42.125  0.3353E+01  0.1126E+03
     42.152  0.3384E+01  0.1127E+03
     42.180  0.5112E+01  0.1129E+03
     42.208  0.4422E+01  0.1130E+03
     42.235  0.3303E+01  0.1131E+03
     42.263  0.3604E+01  0.1132E+03
     42.291  0.4165E+01  0.1133E+03
     42.318  0.4306E+01  0.1134E+03
     42.346  0.3997E+01  0.1135E+03
     42.374  0.4415E+01  0.1137E+03
     42.402  0.3405E+01  0.1138E+03
     42.429  0.2737E+01  0.1138E+03
     42.457  0.2904E+01  0.1139E+03
     42.485  0.3291E+01  0.1140E+03
     42.512  0.4343E+01  0.1141E+03
     42.540  0.4288E+01  0.1142E+03
     42.568  0.2871E+01  0.1143E+03
     42.595  0.3747E+01  0.1144E+03
     42.623  0.4171E+01  0.1145E+03
     42.651  0.3404E+01  0.1146E+03
     42.678  0.2564E+01  0.1147E+03
     42.706  0.2851E+01  0.1148E+03
     42.734  0.3477E+01  0.1149E+03
     42.761  0.4308E+01  0.1150E+03
     42.789  0.3265E+01  0.1151E+03
     42.817  0.2672E+01  0.1152E+03
     42.844  0.2819E+01  0.1152E+03
     42.872  0.3778E+01  0.1153E+03
     42.900  0.5741E+01  0.1155E+03
     42.927  0.3116E+01  0.1156E+03
     42.955  0.3588E+01  0.1157E+03
     42.983  0.3350E+01  0.1158E+03
     43.010  0.3849E+01  0.1159E+03
     43.038  0.3755E+01  0.1160E+03
     43.066  0.4512E+01  0.1161E+03
     43.093  0.4140E+01  0.1162E+03
     43.121  0.3463E+01  0.1163E+03
     43.149  0.3319E+01  0.1164E+03
     43.177  0.5749E+01  0.1166E+03
     43.204  0.3884E+01  0.1167E+03
     43.232  0.2694E+01  0.1168E+03
     43.260  0.3750E+01  0.1169E+03
     43.287  0.2339E+01  0.1169E+03
     43.315  0.3781E+01  0.1170E+03
     43.343  0.4022E+01  0.1171E+03
     43.370  0.4762E+01  0.1173E+03
     43.398  0.3678E+01  0.1174E+03
     43.426  0.4442E+01  0.1175E+03
     43.453  0.4042E+01  0.1176E+03
     43.481  0.3958E+01  0.1177E+03
     43.509  0.4742E+01  0.1179E+03
     43.536  0.4538E+01  0.1180E+03
     43.564  0.3772E+01  0.1181E+03
     43.592  0.2966E+01  0.1182E+03
     43.619  0.2992E+01  0.1182E+03
     43.647  0.4011E+01  0.1184E+03
     43.675  0.5398E+01  0.1185E+03
     43.702  0.4604E+01  0.1186E+03
     43.730  0.4018E+01  0.1187E+03
     43.758  0.4266E+01  0.1189E+03
     43.785  0.3186E+01  0.1190E+03
     43.813  0.2507E+01  0.1190E+03
     43.841  0.4132E+01  0.1191E+03
     43.868  0.4460E+01  0.1193E+03
     43.896  0.3346E+01  0.1194E+03
     43.924  0.3367E+01  0.1194E+03
     43.951  0.3300E+01  0.1195E+03
     43.979  0.3973E+01  0.1196E+03
     44.007  0.4020E+01  0.1198E+03
     44.035  0.3762E+01  0.1199E+03
     44.062  0.4044E+01  0.1200E+03
     44.090  0.4595E+01  0.1201E+03
     44.118  0.5939E+01  0.1203E+03
     44.145  0.3190E+01  0.1204E+03
     44.173  0.3533E+01  0.1205E+03
     44.201  0.2831E+01  0.1205E+03
     44.228  0.4824E+01  0.1207E+03
     44.256  0.4417E+01  0.1208E+03
     44.284  0.4300E+01  0.1209E+03
     44.311  0.3971E+01  0.1210E+03
     44.339  0.3649E+01  0.1211E+03
     44.367  0.4361E+01  0.1212E+03
     44.394  0.4551E+01  0.1214E+03
     44.422  0.4403E+01  0.1215E+03
     44.450  0.3324E+01  0.1216E+03
     44.477  0.2701E+01  0.1217E+03
     44.505  0.3312E+01  0.1217E+03
     44.533  0.5258E+01  0.1219E+03
     44.560  0.4514E+01  0.1220E+03
     44.588  0.5089E+01  0.1222E+03
     44.616  0.2359E+01  0.1222E+03
     44.643  0.2819E+01  0.1223E+03
     44.671  0.2824E+01  0.1224E+03
     44.699  0.2890E+01  0.1225E+03
     44.726  0.4357E+01  0.1226E+03
     44.754  0.3433E+01  0.1227E+03
     44.782  0.2022E+01  0.1227E+03
     44.810  0.3592E+01  0.1228E+03
     44.837  0.3317E+01  0.1229E+03
     44.865  0.3760E+01  0.1230E+03
     44.893  0.5574E+01  0.1232E+03
     44.920  0.3275E+01  0.1233E+03
     44.948  0.2804E+01  0.1233E+03
     44.976  0.2510E+01  0.1234E+03
     45.003  0.3952E+01  0.1235E+03
     45.031  0.4265E+01  0.1236E+03
     45.059  0.3954E+01  0.1238E+03
     45.086  0.2852E+01  0.1238E+03
     45.114  0.3152E+01  0.1239E+03
     45.142  0.3644E+01  0.1240E+03
     45.169  0.3611E+01  0.1241E+03
     45.197  0.3264E+01  0.1242E+03
     45.225  0.3279E+01  0.1243E+03
     45.252  0.2994E+01  0.1244E+03
     45.280  0.4643E+01  0.1245E+03
     45.308  0.4421E+01  0.1246E+03
     45.335  0.2764E+01  0.1247E+03
     45.363  0.2326E+01  0.1248E+03
     45.391  0.2646E+01  0.1248E+03
     45.418  0.3634E+01  0.1249E+03
     45.446  0.3475E+01  0.1250E+03
     45.474  0.3982E+01  0.1252E+03
     45.501  0.2670E+01  0.1252E+03
     45.529  0.3275E+01  0.1253E+03
     45.557  0.3736E+01  0.1254E+03
     45.584  0.4929E+01  0.1256E+03
     45.612  0.2954E+01  0.1256E+03
     45.640  0.3163E+01  0.1257E+03
     45.668  0.4233E+01  0.1258E+03
     45.695  0.5070E+01  0.1260E+03
     45.723  0.4467E+01  0.1261E+03
     45.751  0.3603E+01  0.1262E+03
     45.778  0.2563E+01  0.1263E+03
     45.806  0.3060E+01  0.1264E+03
     45.834  0.4067E+01  0.1265E+03
     45.861  0.3275E+01  0.1266E+03
     45.889  0.3810E+01  0.1267E+03
     45.917  0.4373E+01  0.1268E+03
     45.944  0.2934E+01  0.1269E+03
     45.972  0.4390E+01  0.1270E+03
     46.000  0.4500E+01  0.1271E+03
     46.027  0.2788E+01  0.1272E+03
     46.055  0.3697E+01  0.1273E+03
     46.083  0.3525E+01  0.1274E+03
     46.110  0.3049E+01  0.1275E+03
     46.138  0.2297E+01  0.1275E+03
     46.166  0.3774E+01  0.1277E+03
     46.193  0.4782E+01  0.1278E+03
     46.221  0.4048E+01  0.1279E+03
     46.249  0.4167E+01  0.1280E+03
     46.276  0.4208E+01  0.1281E+03
     46.304  0.3232E+01  0.1282E+03
     46.332  0.3831E+01  0.1283E+03
     46.359  0.3760E+01  0.1284E+03
     46.387  0.4019E+01  0.1285E+03
     46.415  0.5123E+01  0.1287E+03
     46.443  0.5525E+01  0.1288E+03
     46.470  0.3511E+01  0.1289E+03
     46.498  0.4174E+01  0.1290E+03
     46.526  0.3582E+01  0.1291E+03
     46.553  0.2923E+01  0.1292E+03
     46.581  0.4163E+01  0.1293E+03
     46.609  0.4819E+01  0.1295E+03
     46.636  0.4270E+01  0.1296E+03
     46.664  0.4213E+01  0.1297E+03
     46.692  0.5416E+01  0.1299E+03
     46.719  0.4762E+01  0.1300E+03
     46.747  0.4129E+01  0.1301E+03
     46.775  0.4146E+01  0.1302E+03
     46.802  0.3361E+01  0.1303E+03
     46.830  0.2999E+01  0.1304E+03
     46.858  0.3883E+01  0.1305E+03
     46.885  0.3473E+01  0.1306E+03
     46.913  0.2908E+01  0.1307E+03
     46.941  0.2351E+01  0.1307E+03
     46.968  0.3314E+01  0.1308E+03
     46.996  0.2456E+01  0.1309E+03
     47.024  0.3003E+01  0.1310E+03
     47.051  0.3679E+01  0.1311E+03
     47.079  0.2599E+01  0.1312E+03
     47.107  0.3101E+01  0.1312E+03
     47.134  0.3859E+01  0.1314E+03
     47.162  0.4493E+01  0.1315E+03
     47.190  0.3959E+01  0.1316E+03
     47.217  0.4356E+01  0.1317E+03
     47.245  0.2667E+01  0.1318E+03
     47.273  0.3652E+01  0.1319E+03
     47.301  0.4719E+01  0.1320E+03
     47.328  0.3611E+01  0.1321E+03
     47.356  0.3937E+01  0.1322E+03
     47.384  0.3887E+01  0.1323E+03
     47.411  0.4944E+01  0.1325E+03
     47.439  0.3929E+01  0.1326E+03
     47.467  0.4414E+01  0.1327E+03
     47.494  0.3427E+01  0.1328E+03
     47.522  0.3418E+01  0.1329E+03
     47.550  0.3271E+01  0.1330E+03
     47.577  0.3674E+01  0.1331E+03
     47.605  0.3724E+01  0.1332E+03
     47.633  0.3066E+01  0.1333E+03
     47.660  0.3246E+01  0.1334E+03
     47.688  0.3991E+01  0.1335E+03
     47.716  0.3718E+01  0.1336E+03
     47.743  0.4529E+01  0.1337E+03
     47.771  0.4064E+01  0.1338E+03
     47.799  0.4153E+01  0.1339E+03
     47.826  0.3411E+01  0.1340E+03
     47.854  0.4736E+01  0.1341E+03
     47.882  0.4694E+01  0.1343E+03
     47.909  0.2418E+01  0.1343E+03
     47.937  0.3161E+01  0.1344E+03
     47.965  0.4741E+01  0.1346E+03
     47.992  0.5481E+01  0.1347E+03
     48.020  0.3238E+01  0.1348E+03
     48.048  0.2876E+01  0.1349E+03
     48.076  0.4622E+01  0.1350E+03
     48.103  0.5251E+01  0.1352E+03
     48.131  0.4949E+01  0.1353E+03
     48.159  0.5103E+01  0.1354E+03
     48.186  0.3817E+01  0.1355E+03
     48.214  0.4305E+01  0.1357E+03
     48.242  0.2765E+01  0.1357E+03
     48.269  0.5308E+01  0.1359E+03
     48.297  0.3638E+01  0.1360E+03
     48.325  0.3257E+01  0.1361E+03
     48.352  0.3401E+01  0.1362E+03
     48.380  0.4104E+01  0.1363E+03
     48.408  0.3091E+01  0.1364E+03
     48.435  0.4290E+01  0.1365E+03
     48.463  0.4943E+01  0.1366E+03
     48.491  0.3323E+01  0.1367E+03
     48.518  0.3197E+01  0.1368E+03
     48.546  0.3230E+01  0.1369E+03
     48.574  0.2870E+01  0.1370E+03
     48.601  0.2707E+01  0.1370E+03
     48.629  0.4254E+01  0.1372E+03
     48.657  0.2933E+01  0.1372E+03
     48.684  0.4683E+01  0.1374E+03
     48.712  0.4504E+01  0.1375E+03
     48.740  0.3851E+01  0.1376E+03
     48.767  0.4874E+01  0.1377E+03
     48.795  0.3414E+01  0.1378E+03
     48.823  0.3672E+01  0.1379E+03
     48.851  0.2756E+01  0.1380E+03
     48.878  0.4160E+01  0.1381E+03
     48.906  0.4598E+01  0.1383E+03
     48.934  0.2893E+01  0.1383E+03
     48.961  0.3747E+01  0.1384E+03
     48.989  0.3804E+01  0.1385E+03
     49.017  0.3694E+01  0.1386E+03
     49.044  0.2832E+01  0.1387E+03
     49.072  0.3751E+01  0.1388E+03
     49.100  0.5068E+01  0.1390E+03
     49.127  0.3938E+01  0.1391E+03
     49.155  0.2755E+01  0.1392E+03
     49.183  0.2878E+01  0.1392E+03
     49.210  0.2888E+01  0.1393E+03
     49.238  0.3653E+01  0.1394E+03
     49.266  0.5237E+01  0.1396E+03
     49.293  0.3538E+01  0.1397E+03
     49.321  0.2324E+01  0.1397E+03
     49.349  0.3743E+01  0.1398E+03
     49.376  0.4390E+01  0.1400E+03
     49.404  0.2912E+01  0.1400E+03
     49.432  0.3473E+01  0.1401E+03
     49.459  0.3055E+01  0.1402E+03
     49.487  0.2914E+01  0.1403E+03
     49.515  0.4080E+01  0.1404E+03
     49.542  0.4620E+01  0.1405E+03
     49.570  0.3443E+01  0.1406E+03
     49.598  0.3810E+01  0.1407E+03
     49.625  0.3047E+01  0.1408E+03
     49.653  0.4000E+01  0.1409E+03
     49.681  0.3743E+01  0.1410E+03
     49.709  0.3843E+01  0.1411E+03
     49.736  0.3719E+01  0.1412E+03
     49.764  0.3041E+01  0.1413E+03
     49.792  0.2905E+01  0.1414E+03
     49.819  0.4236E+01  0.1415E+03
     49.847  0.3511E+01  0.1416E+03
     49.875  0.2947E+01  0.1417E+03
     49.902  0.4266E+01  0.1418E+03
     49.930  0.3285E+01  0.1419E+03
     49.958  0.3612E+01  0.1420E+03
     49.985  0.2988E+01  0.1421E+03
     50.013  0.3201E+01  0.1422E+03
     50.041  0.4007E+01  0.1423E+03
     50.068  0.3095E+01  0.1424E+03
     50.096  0.3411E+01  0.1425E+03
     50.124  0.2885E+01  0.1426E+03
     50.151  0.2567E+01  0.1426E+03
     50.179  0.3357E+01  0.1427E+03
     50.207  0.3787E+01  0.1428E+03
     50.234  0.3857E+01  0.1429E+03
     50.262  0.4420E+01  0.1431E+03
     50.290  0.4191E+01  0.1432E+03
     50.317  0.3313E+01  0.1433E+03
     50.345  0.4495E+01  0.1434E+03
     50.373  0.2526E+01  0.1435E+03
     50.400  0.4395E+01  0.1436E+03
     50.428  0.4686E+01  0.1437E+03
     50.456  0.3763E+01  0.1438E+03
     50.484  0.4222E+01  0.1439E+03
     50.511  0.2864E+01  0.1440E+03
     50.539  0.3306E+01  0.1441E+03
     50.567  0.2860E+01  0.1442E+03
     50.594  0.3526E+01  0.1443E+03
     50.622  0.5029E+01  0.1444E+03
     50.650  0.4192E+01  0.1445E+03
     50.677  0.4421E+01  0.1447E+03
     50.705  0.3083E+01  0.1447E+03
     50.733  0.3652E+01  0.1448E+03
     50.760  0.4535E+01  0.1450E+03
     50.788  0.3776E+01  0.1451E+03
     50.816  0.4034E+01  0.1452E+03
     50.843  0.3704E+01  0.1453E+03
     50.871  0.4499E+01  0.1454E+03
     50.899  0.4634E+01  0.1455E+03
     50.926  0.4967E+01  0.1457E+03
     50.954  0.4242E+01  0.1458E+03
     50.982  0.3780E+01  0.1459E+03
     51.009  0.2841E+01  0.1460E+03
     51.037  0.4313E+01  0.1461E+03
     51.065  0.4232E+01  0.1462E+03
     51.092  0.4384E+01  0.1463E+03
     51.120  0.2449E+01  0.1464E+03
     51.148  0.4275E+01  0.1465E+03
     51.175  0.3347E+01  0.1466E+03
     51.203  0.3691E+01  0.1467E+03
     51.231  0.3825E+01  0.1468E+03
     51.258  0.3552E+01  0.1469E+03
     51.286  0.4544E+01  0.1470E+03
     51.314  0.3914E+01  0.1471E+03
     51.342  0.4805E+01  0.1473E+03
     51.369  0.3831E+01  0.1474E+03
     51.397  0.5343E+01  0.1475E+03
     51.425  0.3970E+01  0.1476E+03
     51.452  0.2807E+01  0.1477E+03
     51.480  0.3645E+01  0.1478E+03
     51.508  0.4477E+01  0.1479E+03
     51.535  0.3663E+01  0.1481E+03
     51.563  0.4662E+01  0.1482E+03
     51.591  0.4303E+01  0.1483E+03
     51.618  0.5198E+01  0.1484E+03
     51.646  0.3364E+01  0.1485E+03
     51.674  0.3180E+01  0.1486E+03
     51.701  0.2857E+01  0.1487E+03
     51.729  0.3887E+01  0.1488E+03
     51.757  0.2754E+01  0.1489E+03
     51.784  0.3776E+01  0.1490E+03
     51.812  0.3433E+01  0.1491E+03
     51.840  0.3669E+01  0.1492E+03
     51.867  0.3745E+01  0.1493E+03
     51.895  0.2928E+01  0.1494E+03
     51.923  0.4201E+01  0.1495E+03
     51.950  0.4398E+01  0.1496E+03
     51.978  0.4016E+01  0.1497E+03
     52.006  0.3591E+01  0.1498E+03
     52.033  0.4374E+01  0.1499E+03
     52.061  0.4346E+01  0.1501E+03
     52.089  0.3406E+01  0.1502E+03
     52.117  0.4138E+01  0.1503E+03
     52.144  0.3907E+01  0.1504E+03
     52.172  0.3079E+01  0.1505E+03
     52.200  0.4339E+01  0.1506E+03
     52.227  0.4620E+01  0.1507E+03
     52.255  0.4944E+01  0.1508E+03
     52.283  0.3557E+01  0.1509E+03
     52.310  0.2626E+01  0.1510E+03
     52.338  0.2814E+01  0.1511E+03
     52.366  0.3424E+01  0.1512E+03
     52.393  0.3424E+01  0.1513E+03
     52.421  0.3669E+01  0.1514E+03
     52.449  0.3412E+01  0.1515E+03
     52.476  0.3005E+01  0.1516E+03
     52.504  0.3522E+01  0.1517E+03
     52.532  0.4196E+01  0.1518E+03
     52.559  0.4909E+01  0.1519E+03
     52.587  0.4339E+01  0.1520E+03
     52.615  0.5402E+01  0.1522E+03
     52.642  0.3667E+01  0.1523E+03
     52.670  0.4160E+01  0.1524E+03
     52.698  0.4510E+01  0.1525E+03
     52.725  0.3047E+01  0.1526E+03
     52.753  0.4726E+01  0.1527E+03
     52.781  0.4573E+01  0.1529E+03
     52.808  0.3116E+01  0.1530E+03
     52.836  0.3278E+01  0.1530E+03
     52.864  0.3817E+01  0.1532E+03
     52.891  0.4858E+01  0.1533E+03
     52.919  0.4746E+01  0.1534E+03
     52.947  0.4014E+01  0.1535E+03
     52.975  0.3285E+01  0.1536E+03
     53.002  0.3868E+01  0.1537E+03
     53.030  0.2893E+01  0.1538E+03
     53.058  0.4420E+01  0.1539E+03
     53.085  0.4136E+01  0.1540E+03
     53.113  0.3812E+01  0.1541E+03
     53.141  0.4388E+01  0.1543E+03
     53.168  0.3573E+01  0.1544E+03
     53.196  0.2640E+01  0.1544E+03
     53.224  0.4064E+01  0.1546E+03
     53.251  0.3693E+01  0.1547E+03
     53.279  0.4120E+01  0.1548E+03
     53.307  0.5266E+01  0.1549E+03
     53.334  0.4033E+01  0.1550E+03
     53.362  0.3429E+01  0.1551E+03
     53.390  0.3301E+01  0.1552E+03
     53.417  0.3674E+01  0.1553E+03
     53.445  0.4464E+01  0.1554E+03
     53.473  0.4917E+01  0.1556E+03
     53.500  0.4420E+01  0.1557E+03
     53.528  0.4570E+01  0.1558E+03
     53.556  0.5184E+01  0.1560E+03
     53.583  0.4041E+01  0.1561E+03
     53.611  0.3631E+01  0.1562E+03
     53.639  0.3381E+01  0.1563E+03
     53.666  0.3975E+01  0.1564E+03
     53.694  0.4579E+01  0.1565E+03
     53.722  0.2804E+01  0.1566E+03
     53.750  0.3968E+01  0.1567E+03
     53.777  0.4519E+01  0.1568E+03
     53.805  0.3170E+01  0.1569E+03
     53.833  0.3585E+01  0.1570E+03
     53.860  0.3922E+01  0.1571E+03
     53.888  0.4000E+01  0.1572E+03
     53.916  0.3430E+01  0.1573E+03
     53.943  0.3660E+01  0.1574E+03
     53.971  0.4234E+01  0.1575E+03
     53.999  0.3222E+01  0.1576E+03
     54.026  0.3084E+01  0.1577E+03
     54.054  0.3629E+01  0.1578E+03
     54.082  0.3502E+01  0.1579E+03
     54.109  0.5345E+01  0.1581E+03
     54.137  0.4756E+01  0.1582E+03
     54.165  0.3554E+01  0.1583E+03
     54.192  0.4341E+01  0.1584E+03
     54.220  0.4934E+01  0.1585E+03
     54.248  0.5694E+01  0.1587E+03
     54.275  0.4780E+01  0.1588E+03
     54.303  0.4866E+01  0.1590E+03
     54.331  0.3890E+01  0.1591E+03
     54.358  0.3132E+01  0.1592E+03
     54.386  0.3666E+01  0.1593E+03
     54.414  0.3247E+01  0.1594E+03
     54.441  0.4972E+01  0.1595E+03
     54.469  0.5767E+01  0.1597E+03
     54.497  0.5063E+01  0.1598E+03
     54.525  0.4558E+01  0.1599E+03
     54.552  0.3483E+01  0.1600E+03
     54.580  0.3432E+01  0.1601E+03
     54.608  0.5615E+01  0.1603E+03
     54.635  0.5194E+01  0.1604E+03
     54.663  0.4225E+01  0.1605E+03
     54.691  0.4583E+01  0.1607E+03
     54.718  0.4895E+01  0.1608E+03
     54.746  0.3444E+01  0.1609E+03
     54.774  0.5392E+01  0.1610E+03
     54.801  0.4980E+01  0.1612E+03
     54.829  0.4194E+01  0.1613E+03
     54.857  0.3586E+01  0.1614E+03
     54.884  0.3976E+01  0.1615E+03
     54.912  0.4970E+01  0.1616E+03
     54.940  0.5624E+01  0.1618E+03
     54.967  0.6025E+01  0.1620E+03
     54.995  0.4373E+01  0.1621E+03
     55.023  0.5335E+01  0.1622E+03
     55.050  0.4976E+01  0.1624E+03
     55.078  0.3971E+01  0.1625E+03
     55.106  0.2916E+01  0.1626E+03
     55.133  0.2782E+01  0.1626E+03
     55.161  0.3567E+01  0.1627E+03
     55.189  0.4133E+01  0.1628E+03
     55.216  0.3905E+01  0.1630E+03
     55.244  0.3419E+01  0.1631E+03
     55.272  0.3758E+01  0.1632E+03
     55.299  0.3781E+01  0.1633E+03
     55.327  0.3294E+01  0.1634E+03
     55.355  0.3691E+01  0.1635E+03
     55.383  0.4363E+01  0.1636E+03
     55.410  0.3742E+01  0.1637E+03
     55.438  0.3375E+01  0.1638E+03
     55.466  0.3208E+01  0.1639E+03
     55.493  0.2975E+01  0.1639E+03
     55.521  0.5376E+01  0.1641E+03
     55.549  0.3602E+01  0.1642E+03
     55.576  0.2731E+01  0.1643E+03
     55.604  0.5199E+01  0.1644E+03
     55.632  0.2842E+01  0.1645E+03
     55.659  0.4574E+01  0.1646E+03
     55.687  0.5256E+01  0.1648E+03
     55.715  0.4989E+01  0.1649E+03
     55.742  0.3580E+01  0.1650E+03
     55.770  0.4525E+01  0.1651E+03
     55.798  0.3306E+01  0.1652E+03
     55.825  0.4632E+01  0.1653E+03
     55.853  0.3330E+01  0.1654E+03
     55.881  0.4455E+01  0.1656E+03
     55.908  0.6239E+01  0.1657E+03
     55.936  0.3659E+01  0.1658E+03
     55.964  0.4505E+01  0.1660E+03
     55.991  0.4314E+01  0.1661E+03
     56.019  0.2872E+01  0.1662E+03
     56.047  0.4704E+01  0.1663E+03
     56.074  0.5076E+01  0.1664E+03
     56.102  0.4928E+01  0.1666E+03
     56.130  0.3219E+01  0.1667E+03
     56.158  0.3033E+01  0.1667E+03
     56.185  0.4739E+01  0.1669E+03
     56.213  0.4129E+01  0.1670E+03
     56.241  0.4857E+01  0.1671E+03
     56.268  0.5434E+01  0.1673E+03
     56.296  0.4448E+01  0.1674E+03
     56.324  0.4774E+01  0.1675E+03
     56.351  0.5647E+01  0.1677E+03
     56.379  0.4110E+01  0.1678E+03
     56.407  0.4594E+01  0.1679E+03
     56.434  0.3946E+01  0.1680E+03
     56.462  0.5407E+01  0.1682E+03
     56.490  0.4358E+01  0.1683E+03
     56.517  0.3797E+01  0.1684E+03
     56.545  0.3592E+01  0.1685E+03
     56.573  0.3596E+01  0.1686E+03
     56.600  0.3345E+01  0.1687E+03
     56.628  0.3920E+01  0.1688E+03
     56.656  0.6062E+01  0.1690E+03
     56.683  0.4501E+01  0.1691E+03
     56.711  0.4544E+01  0.1692E+03
     56.739  0.3267E+01  0.1693E+03
     56.766  0.4398E+01  0.1694E+03
     56.794  0.5356E+01  0.1696E+03
     56.822  0.4946E+01  0.1697E+03
     56.849  0.4457E+01  0.1698E+03
     56.877  0.6483E+01  0.1700E+03
     56.905  0.4846E+01  0.1702E+03
     56.932  0.4557E+01  0.1703E+03
     56.960  0.4059E+01  0.1704E+03
     56.988  0.3750E+01  0.1705E+03
     57.016  0.3767E+01  0.1706E+03
     57.043  0.4992E+01  0.1707E+03
     57.071  0.3646E+01  0.1708E+03
     57.099  0.4466E+01  0.1710E+03
     57.126  0.5088E+01  0.1711E+03
     57.154  0.3286E+01  0.1712E+03
     57.182  0.4045E+01  0.1713E+03
     57.209  0.4006E+01  0.1714E+03
     57.237  0.4508E+01  0.1715E+03
     57.265  0.4383E+01  0.1717E+03
     57.292  0.3185E+01  0.1718E+03
     57.320  0.4752E+01  0.1719E+03
     57.348  0.4773E+01  0.1720E+03
     57.375  0.3015E+01  0.1721E+03
     57.403  0.3946E+01  0.1722E+03
     57.431  0.3227E+01  0.1723E+03
     57.458  0.4406E+01  0.1724E+03
     57.486  0.3263E+01  0.1725E+03
     57.514  0.3744E+01  0.1726E+03
     57.541  0.4061E+01  0.1727E+03
     57.569  0.4004E+01  0.1728E+03
     57.597  0.5483E+01  0.1730E+03
     57.624  0.4916E+01  0.1731E+03
     57.652  0.4306E+01  0.1732E+03
     57.680  0.4104E+01  0.1734E+03
     57.707  0.4506E+01  0.1735E+03
     57.735  0.4275E+01  0.1736E+03
     57.763  0.4131E+01  0.1737E+03
     57.791  0.3248E+01  0.1738E+03
     57.818  0.4171E+01  0.1739E+03
     57.846  0.3679E+01  0.1740E+03
     57.874  0.3538E+01  0.1741E+03
     57.901  0.3434E+01  0.1742E+03
     57.929  0.4531E+01  0.1743E+03
     57.957  0.4415E+01  0.1745E+03
     57.984  0.4564E+01  0.1746E+03
     58.012  0.5511E+01  0.1747E+03
     58.040  0.4615E+01  0.1749E+03
     58.067  0.3676E+01  0.1750E+03
     58.095  0.3110E+01  0.1751E+03
     58.123  0.4422E+01  0.1752E+03
     58.150  0.4027E+01  0.1753E+03
     58.178  0.3798E+01  0.1754E+03
     58.206  0.3136E+01  0.1755E+03
     58.233  0.5195E+01  0.1756E+03
     58.261  0.5524E+01  0.1758E+03
     58.289  0.3983E+01  0.1759E+03
     58.316  0.5364E+01  0.1760E+03
     58.344  0.4804E+01  0.1762E+03
     58.372  0.4535E+01  0.1763E+03
     58.399  0.3687E+01  0.1764E+03
     58.427  0.3379E+01  0.1765E+03
     58.455  0.3630E+01  0.1766E+03
     58.482  0.4146E+01  0.1767E+03
     58.510  0.3761E+01  0.1768E+03
     58.538  0.2980E+01  0.1769E+03
     58.565  0.4462E+01  0.1770E+03
     58.593  0.4181E+01  0.1771E+03
     58.621  0.4296E+01  0.1773E+03
     58.649  0.4964E+01  0.1774E+03
     58.676  0.3941E+01  0.1775E+03
     58.704  0.4881E+01  0.1776E+03
     58.732  0.5229E+01  0.1778E+03
     58.759  0.4396E+01  0.1779E+03
     58.787  0.3909E+01  0.1780E+03
     58.815  0.3716E+01  0.1781E+03
     58.842  0.4944E+01  0.1782E+03
     58.870  0.5429E+01  0.1784E+03
     58.898  0.4144E+01  0.1785E+03
     58.925  0.4265E+01  0.1786E+03
     58.953  0.3095E+01  0.1787E+03
     58.981  0.4102E+01  0.1788E+03
     59.008  0.5019E+01  0.1790E+03
     59.036  0.5079E+01  0.1791E+03
     59.064  0.4116E+01  0.1792E+03
     59.091  0.4675E+01  0.1794E+03
     59.119  0.4559E+01  0.1795E+03
     59.147  0.4268E+01  0.1796E+03
     59.174  0.3061E+01  0.1797E+03
     59.202  0.3415E+01  0.1798E+03
     59.230  0.3158E+01  0.1799E+03
     59.257  0.5040E+01  0.1800E+03
     59.285  0.3441E+01  0.1801E+03
     59.313  0.3984E+01  0.1802E+03
     59.340  0.3830E+01  0.1803E+03
     59.368  0.4762E+01  0.1804E+03
     59.396  0.4912E+01  0.1806E+03
     59.424  0.3775E+01  0.1807E+03
     59.451  0.4744E+01  0.1808E+03
     59.479  0.5246E+01  0.1810E+03
     59.507  0.4375E+01  0.1811E+03
     59.534  0.5246E+01  0.1812E+03
     59.562  0.3695E+01  0.1813E+03
     59.590  0.3615E+01  0.1814E+03
     59.617  0.4577E+01  0.1816E+03
     59.645  0.5178E+01  0.1817E+03
     59.673  0.4910E+01  0.1818E+03
     59.700  0.3577E+01  0.1819E+03
     59.728  0.5299E+01  0.1821E+03
     59.756  0.4920E+01  0.1822E+03
     59.783  0.3728E+01  0.1823E+03
     59.811  0.4463E+01  0.1824E+03
     59.839  0.4236E+01  0.1826E+03
     59.866  0.3766E+01  0.1827E+03
     59.894  0.4907E+01  0.1828E+03
     59.922  0.4088E+01  0.1829E+03
     59.949  0.4009E+01  0.1830E+03
     59.977  0.4233E+01  0.1831E+03
     60.005  0.4380E+01  0.1833E+03
     60.032  0.3155E+01  0.1834E+03
     60.060  0.3729E+01  0.1835E+03
     60.088  0.2865E+01  0.1835E+03
     60.115  0.3824E+01  0.1836E+03
     60.143  0.3907E+01  0.1838E+03
     60.171  0.3983E+01  0.1839E+03
     60.198  0.3914E+01  0.1840E+03
     60.226  0.5359E+01  0.1841E+03
     60.254  0.5471E+01  0.1843E+03
     60.282  0.3484E+01  0.1844E+03
     60.309  0.3601E+01  0.1845E+03
     60.337  0.4368E+01  0.1846E+03
     60.365  0.3292E+01  0.1847E+03
     60.392  0.4383E+01  0.1848E+03
     60.420  0.5005E+01  0.1849E+03
     60.448  0.5167E+01  0.1851E+03
     60.475  0.4448E+01  0.1852E+03
     60.503  0.4663E+01  0.1853E+03
     60.531  0.5207E+01  0.1855E+03
     60.558  0.4659E+01  0.1856E+03
     60.586  0.3943E+01  0.1857E+03
     60.614  0.4517E+01  0.1858E+03
     60.641  0.4299E+01  0.1860E+03
     60.669  0.5040E+01  0.1861E+03
     60.697  0.3114E+01  0.1862E+03
     60.724  0.4004E+01  0.1863E+03
     60.752  0.4047E+01  0.1864E+03
     60.780  0.3588E+01  0.1865E+03
     60.807  0.3481E+01  0.1866E+03
     60.835  0.3287E+01  0.1867E+03
     60.863  0.3336E+01  0.1868E+03
     60.890  0.4910E+01  0.1869E+03
     60.918  0.4109E+01  0.1870E+03
     60.946  0.2549E+01  0.1871E+03
     60.973  0.3765E+01  0.1872E+03
     61.001  0.3491E+01  0.1873E+03
     61.029  0.3991E+01  0.1874E+03
     61.057  0.4431E+01  0.1875E+03
     61.084  0.4799E+01  0.1877E+03
     61.112  0.5197E+01  0.1878E+03
     61.140  0.4247E+01  0.1879E+03
     61.167  0.3550E+01  0.1880E+03
     61.195  0.4668E+01  0.1882E+03
     61.223  0.3677E+01  0.1883E+03
     61.250  0.3323E+01  0.1884E+03
     61.278  0.4189E+01  0.1885E+03
     61.306  0.6735E+01  0.1887E+03
     61.333  0.4594E+01  0.1888E+03
     61.361  0.4696E+01  0.1889E+03
     61.389  0.5554E+01  0.1891E+03
     61.416  0.6056E+01  0.1892E+03
     61.444  0.3470E+01  0.1893E+03
     61.472  0.4537E+01  0.1895E+03
     61.499  0.4337E+01  0.1896E+03
     61.527  0.5624E+01  0.1897E+03
     61.555  0.4791E+01  0.1899E+03
     61.582  0.3550E+01  0.1900E+03
     61.610  0.3813E+01  0.1901E+03
     61.638  0.4193E+01  0.1902E+03
     61.665  0.4511E+01  0.1903E+03
     61.693  0.3818E+01  0.1904E+03
     61.721  0.4222E+01  0.1905E+03
     61.748  0.5141E+01  0.1907E+03
     61.776  0.5092E+01  0.1908E+03
     61.804  0.5556E+01  0.1910E+03
     61.832  0.4480E+01  0.1911E+03
     61.859  0.3180E+01  0.1912E+03
     61.887  0.3584E+01  0.1913E+03
     61.915  0.3035E+01  0.1914E+03
     61.942  0.4714E+01  0.1915E+03
     61.970  0.4408E+01  0.1916E+03
     61.998  0.3723E+01  0.1917E+03
     62.025  0.3410E+01  0.1918E+03
     62.053  0.3432E+01  0.1919E+03
     62.081  0.4730E+01  0.1920E+03
     62.108  0.3515E+01  0.1921E+03
     62.136  0.2806E+01  0.1922E+03
     62.164  0.3821E+01  0.1923E+03
     62.191  0.4500E+01  0.1924E+03
     62.219  0.3242E+01  0.1925E+03
     62.247  0.3681E+01  0.1926E+03
     62.274  0.4205E+01  0.1928E+03
     62.302  0.4038E+01  0.1929E+03
     62.330  0.3971E+01  0.1930E+03
     62.357  0.3256E+01  0.1931E+03
     62.385  0.4817E+01  0.1932E+03
     62.413  0.4843E+01  0.1933E+03
     62.440  0.5198E+01  0.1935E+03
     62.468  0.4774E+01  0.1936E+03
     62.496  0.4241E+01  0.1937E+03
     62.523  0.5698E+01  0.1939E+03
     62.551  0.5560E+01  0.1940E+03
     62.579  0.4559E+01  0.1942E+03
     62.606  0.5150E+01  0.1943E+03
     62.634  0.4531E+01  0.1944E+03
     62.662  0.5270E+01  0.1946E+03
     62.690  0.4950E+01  0.1947E+03
     62.717  0.5946E+01  0.1949E+03
     62.745  0.4597E+01  0.1950E+03
     62.773  0.4812E+01  0.1951E+03
     62.800  0.5904E+01  0.1953E+03
     62.828  0.4096E+01  0.1954E+03
     62.856  0.4706E+01  0.1955E+03
     62.883  0.4304E+01  0.1957E+03
     62.911  0.4443E+01  0.1958E+03
     62.939  0.4193E+01  0.1959E+03
     62.966  0.4573E+01  0.1960E+03
     62.994  0.3610E+01  0.1961E+03
     63.022  0.3164E+01  0.1962E+03
     63.049  0.4081E+01  0.1963E+03
     63.077  0.4184E+01  0.1965E+03
     63.105  0.4390E+01  0.1966E+03
     63.132  0.4674E+01  0.1967E+03
     63.160  0.4228E+01  0.1968E+03
     63.188  0.3227E+01  0.1969E+03
     63.215  0.4051E+01  0.1970E+03
     63.243  0.3792E+01  0.1971E+03
     63.271  0.3925E+01  0.1972E+03
     63.298  0.4519E+01  0.1974E+03
     63.326  0.4883E+01  0.1975E+03
     63.354  0.4635E+01  0.1976E+03
     63.381  0.4386E+01  0.1977E+03
     63.409  0.4175E+01  0.1979E+03
     63.437  0.4479E+01  0.1980E+03
     63.465  0.5459E+01  0.1981E+03
     63.492  0.4300E+01  0.1983E+03
     63.520  0.4345E+01  0.1984E+03
     63.548  0.4012E+01  0.1985E+03
     63.575  0.3982E+01  0.1986E+03
     63.603  0.4647E+01  0.1987E+03
     63.631  0.5822E+01  0.1989E+03
     63.658  0.5061E+01  0.1990E+03
     63.686  0.6324E+01  0.1992E+03
     63.714  0.3849E+01  0.1993E+03
     63.741  0.3084E+01  0.1994E+03
     63.769  0.4016E+01  0.1995E+03
     63.797  0.5707E+01  0.1997E+03
     63.824  0.4140E+01  0.1998E+03
     63.852  0.3904E+01  0.1999E+03
     63.880  0.4675E+01  0.2000E+03
     63.907  0.4564E+01  0.2001E+03
     63.935  0.4846E+01  0.2003E+03
     63.963  0.5057E+01  0.2004E+03
     63.990  0.4353E+01  0.2005E+03
     64.018  0.3722E+01  0.2006E+03
     64.046  0.2971E+01  0.2007E+03
     64.073  0.3416E+01  0.2008E+03
     64.101  0.4162E+01  0.2009E+03
     64.129  0.4352E+01  0.2010E+03
     64.156  0.4996E+01  0.2012E+03
     64.184  0.4553E+01  0.2013E+03
     64.212  0.4808E+01  0.2014E+03
     64.239  0.3337E+01  0.2015E+03
     64.267  0.3831E+01  0.2016E+03
     64.295  0.3109E+01  0.2017E+03
     64.323  0.4480E+01  0.2019E+03
     64.350  0.5795E+01  0.2020E+03
     64.378  0.4598E+01  0.2021E+03
     64.406  0.5246E+01  0.2023E+03
     64.433  0.4494E+01  0.2024E+03
     64.461  0.3470E+01  0.2025E+03
     64.489  0.4382E+01  0.2026E+03
     64.516  0.3900E+01  0.2027E+03
     64.544  0.4450E+01  0.2029E+03
     64.572  0.6623E+01  0.2030E+03
     64.599  0.4173E+01  0.2032E+03
     64.627  0.3413E+01  0.2033E+03
     64.655  0.3765E+01  0.2034E+03
     64.682  0.4636E+01  0.2035E+03
     64.710  0.2408E+01  0.2036E+03
     64.738  0.3358E+01  0.2036E+03
     64.765  0.2604E+01  0.2037E+03
     64.793  0.4426E+01  0.2038E+03
     64.821  0.3608E+01  0.2039E+03
     64.848  0.4919E+01  0.2041E+03
     64.876  0.4476E+01  0.2042E+03
     64.904  0.5221E+01  0.2043E+03
     64.931  0.4786E+01  0.2045E+03
     64.959  0.4666E+01  0.2046E+03
     64.987  0.4074E+01  0.2047E+03
     65.014  0.6238E+01  0.2049E+03
     65.042  0.4052E+01  0.2050E+03
     65.070  0.3935E+01  0.2051E+03
     65.098  0.4811E+01  0.2052E+03
     65.125  0.5963E+01  0.2054E+03
     65.153  0.4261E+01  0.2055E+03
     65.181  0.4147E+01  0.2056E+03
     65.208  0.5921E+01  0.2058E+03
     65.236  0.5123E+01  0.2059E+03
     65.264  0.3092E+01  0.2060E+03
     65.291  0.4865E+01  0.2062E+03
     65.319  0.4474E+01  0.2063E+03
     65.347  0.4490E+01  0.2064E+03
     65.374  0.3739E+01  0.2065E+03
     65.402  0.3825E+01  0.2066E+03
     65.430  0.3653E+01  0.2067E+03
     65.457  0.3481E+01  0.2068E+03
     65.485  0.4057E+01  0.2069E+03
     65.513  0.3155E+01  0.2070E+03
     65.540  0.2704E+01  0.2071E+03
     65.568  0.4405E+01  0.2072E+03
     65.596  0.3026E+01  0.2073E+03
     65.623  0.3572E+01  0.2074E+03
     65.651  0.4968E+01  0.2075E+03
     65.679  0.4833E+01  0.2077E+03
     65.706  0.5067E+01  0.2078E+03
     65.734  0.3480E+01  0.2079E+03
     65.762  0.3833E+01  0.2080E+03
     65.789  0.4263E+01  0.2081E+03
     65.817  0.4030E+01  0.2082E+03
     65.845  0.4695E+01  0.2084E+03
     65.872  0.4997E+01  0.2085E+03
     65.900  0.5056E+01  0.2087E+03
     65.928  0.4827E+01  0.2088E+03
     65.956  0.5265E+01  0.2089E+03
     65.983  0.4027E+01  0.2090E+03
     66.011  0.5804E+01  0.2092E+03
     66.039  0.5350E+01  0.2094E+03
     66.066  0.5383E+01  0.2095E+03
     66.094  0.3574E+01  0.2096E+03
     66.122  0.3575E+01  0.2097E+03
     66.149  0.4642E+01  0.2098E+03
     66.177  0.4127E+01  0.2099E+03
     66.205  0.4874E+01  0.2101E+03
     66.232  0.4138E+01  0.2102E+03
     66.260  0.3863E+01  0.2103E+03
     66.288  0.4463E+01  0.2104E+03
     66.315  0.5310E+01  0.2106E+03
     66.343  0.3305E+01  0.2107E+03
     66.371  0.6569E+01  0.2108E+03
     66.398  0.5821E+01  0.2110E+03
     66.426  0.4023E+01  0.2111E+03
     66.454  0.4410E+01  0.2112E+03
     66.481  0.4754E+01  0.2114E+03
     66.509  0.4643E+01  0.2115E+03
     66.537  0.4630E+01  0.2116E+03
     66.564  0.3962E+01  0.2117E+03
     66.592  0.5354E+01  0.2119E+03
     66.620  0.3869E+01  0.2120E+03
     66.647  0.5270E+01  0.2121E+03
     66.675  0.3601E+01  0.2122E+03
     66.703  0.3923E+01  0.2123E+03
     66.731  0.5460E+01  0.2125E+03
     66.758  0.5009E+01  0.2126E+03
     66.786  0.5462E+01  0.2128E+03
     66.814  0.4211E+01  0.2129E+03
     66.841  0.4945E+01  0.2130E+03
     66.869  0.5377E+01  0.2132E+03
     66.897  0.5840E+01  0.2134E+03
     66.924  0.4374E+01  0.2135E+03
     66.952  0.4225E+01  0.2136E+03
     66.980  0.5933E+01  0.2138E+03
     67.007  0.3528E+01  0.2139E+03
     67.035  0.6113E+01  0.2140E+03
     67.063  0.3829E+01  0.2141E+03
     67.090  0.4350E+01  0.2142E+03
     67.118  0.4961E+01  0.2144E+03
     67.146  0.4398E+01  0.2145E+03
     67.173  0.3995E+01  0.2146E+03
     67.201  0.3435E+01  0.2147E+03
     67.229  0.3725E+01  0.2148E+03
     67.256  0.3535E+01  0.2149E+03
     67.284  0.2678E+01  0.2150E+03
     67.312  0.5469E+01  0.2151E+03
     67.339  0.3711E+01  0.2152E+03
     67.367  0.4628E+01  0.2154E+03
     67.395  0.4556E+01  0.2155E+03
     67.422  0.3786E+01  0.2156E+03
     67.450  0.4351E+01  0.2157E+03
     67.478  0.4948E+01  0.2159E+03
     67.506  0.4848E+01  0.2160E+03
     67.533  0.5435E+01  0.2161E+03
     67.561  0.5676E+01  0.2163E+03
     67.589  0.3956E+01  0.2164E+03
     67.616  0.5097E+01  0.2165E+03
     67.644  0.5494E+01  0.2167E+03
     67.672  0.3966E+01  0.2168E+03
     67.699  0.4252E+01  0.2169E+03
     67.727  0.4293E+01  0.2170E+03
     67.755  0.4770E+01  0.2172E+03
     67.782  0.4639E+01  0.2173E+03
     67.810  0.3185E+01  0.2174E+03
     67.838  0.2969E+01  0.2175E+03
     67.865  0.3468E+01  0.2176E+03
     67.893  0.5353E+01  0.2177E+03
     67.921  0.3590E+01  0.2178E+03
     67.948  0.4869E+01  0.2180E+03
     67.976  0.4582E+01  0.2181E+03
     68.004  0.5135E+01  0.2182E+03
     68.031  0.5840E+01  0.2184E+03
     68.059  0.5101E+01  0.2185E+03
     68.087  0.4899E+01  0.2187E+03
     68.114  0.5683E+01  0.2188E+03
     68.142  0.4650E+01  0.2189E+03
     68.170  0.4948E+01  0.2191E+03
     68.197  0.5320E+01  0.2192E+03
     68.225  0.4177E+01  0.2193E+03
     68.253  0.4601E+01  0.2195E+03
     68.280  0.5848E+01  0.2196E+03
     68.308  0.5038E+01  0.2198E+03
     68.336  0.4547E+01  0.2199E+03
     68.364  0.4393E+01  0.2200E+03
     68.391  0.3351E+01  0.2201E+03
     68.419  0.3996E+01  0.2202E+03
     68.447  0.3633E+01  0.2203E+03
     68.474  0.5414E+01  0.2205E+03
     68.502  0.4711E+01  0.2206E+03
     68.530  0.5464E+01  0.2208E+03
     68.557  0.5326E+01  0.2209E+03
     68.585  0.6067E+01  0.2211E+03
     68.613  0.4957E+01  0.2212E+03
     68.640  0.5963E+01  0.2214E+03
     68.668  0.4444E+01  0.2215E+03
     68.696  0.5031E+01  0.2216E+03
     68.723  0.3690E+01  0.2217E+03
     68.751  0.3781E+01  0.2218E+03
     68.779  0.3933E+01  0.2220E+03
     68.806  0.5700E+01  0.2221E+03
     68.834  0.4785E+01  0.2222E+03
     68.862  0.3953E+01  0.2224E+03
     68.889  0.3370E+01  0.2224E+03
     68.917  0.4418E+01  0.2226E+03
     68.945  0.4459E+01  0.2227E+03
     68.972  0.3649E+01  0.2228E+03
     69.000  0.4835E+01  0.2229E+03
     69.028  0.4903E+01  0.2231E+03
     69.055  0.4495E+01  0.2232E+03
     69.083  0.4763E+01  0.2233E+03
     69.111  0.4444E+01  0.2234E+03
     69.139  0.4072E+01  0.2236E+03
     69.166  0.5394E+01  0.2237E+03
     69.194  0.5694E+01  0.2239E+03
     69.222  0.4254E+01  0.2240E+03
     69.249  0.4183E+01  0.2241E+03
     69.277  0.4496E+01  0.2242E+03
     69.305  0.3303E+01  0.2243E+03
     69.332  0.4986E+01  0.2245E+03
     69.360  0.4278E+01  0.2246E+03
     69.388  0.4417E+01  0.2247E+03
     69.415  0.3344E+01  0.2248E+03
     69.443  0.5043E+01  0.2249E+03
     69.471  0.5025E+01  0.2251E+03
     69.498  0.5129E+01  0.2252E+03
     69.526  0.3840E+01  0.2253E+03
     69.554  0.4333E+01  0.2254E+03
     69.581  0.4237E+01  0.2255E+03
     69.609  0.5914E+01  0.2257E+03
     69.637  0.4371E+01  0.2258E+03
     69.664  0.5797E+01  0.2260E+03
     69.692  0.4984E+01  0.2261E+03
     69.720  0.4445E+01  0.2263E+03
     69.747  0.3507E+01  0.2264E+03
     69.775  0.4243E+01  0.2265E+03
     69.803  0.3750E+01  0.2266E+03
     69.830  0.5296E+01  0.2267E+03
     69.858  0.5421E+01  0.2269E+03
     69.886  0.3529E+01  0.2270E+03
     69.913  0.2566E+01  0.2270E+03
     69.941  0.4849E+01  0.2272E+03
     69.969  0.4738E+01  0.2273E+03
     69.997  0.4610E+01  0.2274E+03
     70.024  0.5684E+01  0.2276E+03
     70.052  0.5301E+01  0.2277E+03
     70.080  0.5385E+01  0.2279E+03
     70.107  0.4740E+01  0.2280E+03
     70.135  0.5235E+01  0.2282E+03
     70.163  0.4753E+01  0.2283E+03
     70.190  0.4718E+01  0.2284E+03
     70.218  0.4118E+01  0.2285E+03
     70.246  0.4855E+01  0.2287E+03
     70.273  0.2418E+01  0.2287E+03
     70.301  0.3784E+01  0.2288E+03
     70.329  0.5835E+01  0.2290E+03
     70.356  0.5421E+01  0.2292E+03
     70.384  0.4178E+01  0.2293E+03
     70.412  0.4364E+01  0.2294E+03
     70.439  0.3016E+01  0.2295E+03
     70.467  0.6893E+01  0.2297E+03
     70.495  0.5458E+01  0.2298E+03
     70.522  0.4921E+01  0.2300E+03
     70.550  0.5169E+01  0.2301E+03
     70.578  0.4086E+01  0.2302E+03
     70.605  0.4385E+01  0.2303E+03
     70.633  0.4341E+01  0.2304E+03
     70.661  0.2835E+01  0.2305E+03
     70.688  0.3258E+01  0.2306E+03
     70.716  0.3860E+01  0.2307E+03
     70.744  0.4871E+01  0.2309E+03
     70.772  0.5825E+01  0.2310E+03
     70.799  0.3318E+01  0.2311E+03
     70.827  0.5918E+01  0.2313E+03
     70.855  0.4328E+01  0.2314E+03
     70.882  0.6022E+01  0.2316E+03
     70.910  0.5309E+01  0.2317E+03
     70.938  0.3905E+01  0.2318E+03
     70.965  0.5816E+01  0.2320E+03
     70.993  0.5304E+01  0.2321E+03
     71.021  0.4840E+01  0.2323E+03
     71.048  0.4111E+01  0.2324E+03
     71.076  0.5191E+01  0.2325E+03
     71.104  0.5516E+01  0.2327E+03
     71.131  0.3914E+01  0.2328E+03
     71.159  0.3482E+01  0.2329E+03
     71.187  0.4166E+01  0.2330E+03
     71.214  0.4205E+01  0.2331E+03
     71.242  0.4862E+01  0.2332E+03
     71.270  0.3565E+01  0.2333E+03
     71.297  0.5212E+01  0.2335E+03
     71.325  0.4984E+01  0.2336E+03
     71.353  0.4218E+01  0.2337E+03
     71.380  0.4271E+01  0.2339E+03
     71.408  0.3897E+01  0.2340E+03
     71.436  0.4918E+01  0.2341E+03
     71.463  0.4454E+01  0.2342E+03
     71.491  0.3905E+01  0.2343E+03
     71.519  0.4759E+01  0.2345E+03
     71.546  0.4087E+01  0.2346E+03
     71.574  0.4548E+01  0.2347E+03
     71.602  0.4392E+01  0.2348E+03
     71.630  0.3805E+01  0.2349E+03
     71.657  0.5531E+01  0.2351E+03
     71.685  0.4682E+01  0.2352E+03
     71.713  0.4268E+01  0.2353E+03
     71.740  0.5378E+01  0.2355E+03
     71.768  0.4180E+01  0.2356E+03
     71.796  0.3728E+01  0.2357E+03
     71.823  0.3494E+01  0.2358E+03
     71.851  0.4176E+01  0.2359E+03
     71.879  0.4555E+01  0.2360E+03
     71.906  0.4468E+01  0.2362E+03
     71.934  0.5841E+01  0.2363E+03
     71.962  0.6529E+01  0.2365E+03
     71.989  0.4495E+01  0.2366E+03
     72.017  0.4457E+01  0.2368E+03
     72.045  0.4582E+01  0.2369E+03
     72.072  0.5052E+01  0.2370E+03
     72.100  0.4388E+01  0.2371E+03
     72.128  0.4775E+01  0.2373E+03
     72.155  0.3375E+01  0.2374E+03
     72.183  0.4368E+01  0.2375E+03
     72.211  0.3415E+01  0.2376E+03
     72.238  0.4121E+01  0.2377E+03
     72.266  0.5006E+01  0.2378E+03
     72.294  0.4081E+01  0.2379E+03
     72.321  0.3553E+01  0.2380E+03
     72.349  0.3985E+01  0.2382E+03
     72.377  0.4681E+01  0.2383E+03
     72.405  0.5377E+01  0.2384E+03
     72.432  0.5711E+01  0.2386E+03
     72.460  0.5237E+01  0.2387E+03
     72.488  0.4346E+01  0.2389E+03
     72.515  0.4995E+01  0.2390E+03
     72.543  0.4402E+01  0.2391E+03
     72.571  0.4874E+01  0.2393E+03
     72.598  0.5227E+01  0.2394E+03
     72.626  0.3246E+01  0.2395E+03
     72.654  0.4182E+01  0.2396E+03
     72.681  0.4475E+01  0.2397E+03
     72.709  0.5621E+01  0.2399E+03
     72.737  0.4758E+01  0.2400E+03
     72.764  0.4089E+01  0.2401E+03
     72.792  0.3393E+01  0.2402E+03
     72.820  0.4831E+01  0.2404E+03
     72.847  0.4688E+01  0.2405E+03
     72.875  0.4879E+01  0.2406E+03
     72.903  0.5136E+01  0.2408E+03
     72.930  0.4737E+01  0.2409E+03
     72.958  0.5921E+01  0.2411E+03
     72.986  0.4470E+01  0.2412E+03
     73.013  0.4829E+01  0.2413E+03
     73.041  0.3641E+01  0.2414E+03
     73.069  0.3473E+01  0.2415E+03
     73.096  0.3429E+01  0.2416E+03
     73.124  0.4923E+01  0.2417E+03
     73.152  0.3962E+01  0.2419E+03
     73.180  0.5642E+01  0.2420E+03
     73.207  0.5039E+01  0.2421E+03
     73.235  0.4153E+01  0.2423E+03
     73.263  0.4107E+01  0.2424E+03
     73.290  0.5868E+01  0.2425E+03
     73.318  0.6246E+01  0.2427E+03
     73.346  0.5531E+01  0.2429E+03
     73.373  0.4855E+01  0.2430E+03
     73.401  0.5880E+01  0.2432E+03
     73.429  0.5347E+01  0.2433E+03
     73.456  0.5757E+01  0.2435E+03
     73.484  0.4289E+01  0.2436E+03
     73.512  0.2866E+01  0.2437E+03
     73.539  0.5798E+01  0.2438E+03
     73.567  0.5719E+01  0.2440E+03
     73.595  0.5906E+01  0.2441E+03
     73.622  0.3878E+01  0.2443E+03
     73.650  0.3457E+01  0.2444E+03
     73.678  0.3167E+01  0.2444E+03
     73.705  0.4281E+01  0.2446E+03
     73.733  0.4561E+01  0.2447E+03
     73.761  0.5082E+01  0.2448E+03
     73.788  0.5137E+01  0.2450E+03
     73.816  0.4369E+01  0.2451E+03
     73.844  0.7147E+01  0.2453E+03
     73.871  0.4836E+01  0.2454E+03
     73.899  0.4972E+01  0.2456E+03
     73.927  0.5757E+01  0.2457E+03
     73.954  0.3556E+01  0.2458E+03
     73.982  0.3483E+01  0.2459E+03
     74.010  0.4333E+01  0.2460E+03
     74.038  0.4891E+01  0.2462E+03
     74.065  0.5539E+01  0.2463E+03
     74.093  0.2965E+01  0.2464E+03
     74.121  0.3392E+01  0.2465E+03
     74.148  0.4717E+01  0.2466E+03
     74.176  0.4454E+01  0.2467E+03
     74.204  0.4462E+01  0.2469E+03
     74.231  0.5511E+01  0.2470E+03
     74.259  0.4723E+01  0.2472E+03
     74.287  0.3784E+01  0.2473E+03
     74.314  0.4030E+01  0.2474E+03
     74.342  0.3992E+01  0.2475E+03
     74.370  0.3991E+01  0.2476E+03
     74.397  0.3214E+01  0.2477E+03
     74.425  0.4433E+01  0.2478E+03
     74.453  0.3938E+01  0.2479E+03
     74.480  0.4318E+01  0.2480E+03
     74.508  0.4537E+01  0.2482E+03
     74.536  0.3344E+01  0.2483E+03
     74.563  0.3517E+01  0.2483E+03
     74.591  0.3620E+01  0.2484E+03
     74.619  0.3949E+01  0.2486E+03
     74.646  0.5398E+01  0.2487E+03
     74.674  0.4854E+01  0.2488E+03
     74.702  0.3205E+01  0.2489E+03
     74.729  0.3214E+01  0.2490E+03
     74.757  0.3819E+01  0.2491E+03
     74.785  0.5200E+01  0.2493E+03
     74.813  0.5214E+01  0.2494E+03
     74.840  0.3528E+01  0.2495E+03
     74.868  0.3311E+01  0.2496E+03
     74.896  0.3036E+01  0.2497E+03
     74.923  0.3586E+01  0.2498E+03
     74.951  0.3169E+01  0.2499E+03
     74.979  0.2963E+01  0.2500E+03
     75.006  0.3036E+01  0.2500E+03
     75.034  0.2975E+01  0.2501E+03
     75.062  0.3526E+01  0.2502E+03
     75.089  0.2947E+01  0.2503E+03
     75.117  0.3184E+01  0.2504E+03
     75.145  0.3053E+01  0.2505E+03
     75.172  0.2422E+01  0.2505E+03
     75.200  0.2451E+01  0.2506E+03
     75.228  0.2441E+01  0.2507E+03
     75.255  0.3661E+01  0.2508E+03
     75.283  0.2892E+01  0.2509E+03
     75.311  0.4355E+01  0.2510E+03
     75.338  0.4020E+01  0.2511E+03
     75.366  0.3834E+01  0.2512E+03
     75.394  0.2936E+01  0.2513E+03
     75.421  0.3138E+01  0.2514E+03
     75.449  0.3170E+01  0.2515E+03
     75.477  0.2776E+01  0.2515E+03
     75.504  0.2497E+01  0.2516E+03
     75.532  0.2952E+01  0.2517E+03
     75.560  0.3043E+01  0.2518E+03
     75.587  0.2366E+01  0.2518E+03
     75.615  0.2097E+01  0.2519E+03
     75.643  0.2853E+01  0.2520E+03
     75.671  0.3489E+01  0.2521E+03
     75.698  0.2830E+01  0.2521E+03
     75.726  0.2980E+01  0.2522E+03
     75.754  0.2369E+01  0.2523E+03
     75.781  0.2889E+01  0.2524E+03
     75.809  0.2207E+01  0.2524E+03
     75.837  0.2669E+01  0.2525E+03
     75.864  0.3147E+01  0.2526E+03
     75.892  0.2507E+01  0.2527E+03
     75.920  0.1871E+01  0.2527E+03
     75.947  0.1838E+01  0.2528E+03
     75.975  0.1950E+01  0.2528E+03
     76.003  0.1980E+01  0.2529E+03
     76.030  0.2732E+01  0.2529E+03
     76.058  0.2555E+01  0.2530E+03
     76.086  0.3047E+01  0.2531E+03
     76.113  0.2144E+01  0.2532E+03
     76.141  0.3678E+01  0.2533E+03
     76.169  0.1449E+01  0.2533E+03
     76.196  0.1012E+01  0.2533E+03
     76.224  0.1570E+01  0.2534E+03
     76.252  0.2622E+01  0.2534E+03
     76.279  0.2847E+01  0.2535E+03
     76.307  0.2166E+01  0.2536E+03
     76.335  0.1756E+01  0.2536E+03
     76.362  0.2664E+01  0.2537E+03
     76.390  0.3243E+01  0.2538E+03
     76.418  0.2324E+01  0.2539E+03
     76.446  0.2788E+01  0.2539E+03
     76.473  0.2351E+01  0.2540E+03
     76.501  0.2925E+01  0.2541E+03
     76.529  0.1473E+01  0.2541E+03
     76.556  0.1753E+01  0.2542E+03
     76.584  0.1704E+01  0.2542E+03
     76.612  0.1960E+01  0.2543E+03
     76.639  0.1511E+01  0.2543E+03
     76.667  0.1010E+01  0.2543E+03
     76.695  0.1219E+01  0.2544E+03
     76.722  0.1739E+01  0.2544E+03
     76.750  0.1823E+01  0.2545E+03
     76.778  0.1107E+01  0.2545E+03
     76.805  0.2464E+01  0.2546E+03
     76.833  0.1699E+01  0.2546E+03
     76.861  0.1961E+01  0.2547E+03
     76.888  0.1907E+01  0.2547E+03
     76.916  0.1871E+01  0.2548E+03
     76.944  0.2427E+01  0.2549E+03
     76.971  0.1166E+01  0.2549E+03
     76.999  0.2192E+01  0.2549E+03
     77.027  0.1723E+01  0.2550E+03
     77.054  0.1513E+01  0.2550E+03
     77.082  0.1353E+01  0.2551E+03
     77.110  0.1582E+01  0.2551E+03
     77.137  0.9170E+00  0.2551E+03
     77.165  0.1099E+01  0.2552E+03
     77.193  0.7193E+00  0.2552E+03
     77.220  0.8210E+00  0.2552E+03
     77.248  0.1130E+01  0.2552E+03
     77.276  0.1102E+01  0.2553E+03
     77.304  0.1361E+01  0.2553E+03
     77.331  0.5670E+00  0.2553E+03
     77.359  0.9262E+00  0.2554E+03
     77.387  0.1634E+01  0.2554E+03
     77.414  0.1258E+01  0.2554E+03
     77.442  0.8175E+00  0.2555E+03
     77.470  0.1386E+01  0.2555E+03
     77.497  0.7225E+00  0.2555E+03
     77.525  0.5163E+00  0.2555E+03
     77.553  0.7032E+00  0.2555E+03
     77.580  0.4801E+00  0.2556E+03
     77.608  0.1112E+01  0.2556E+03
     77.636  0.1502E+01  0.2556E+03
     77.663  0.1020E+01  0.2557E+03
     77.691  0.5009E+00  0.2557E+03
     77.719  0.4670E+00  0.2557E+03
     77.746  0.9662E+00  0.2557E+03
     77.774  0.9866E+00  0.2557E+03
     77.802  0.9885E+00  0.2558E+03
     77.829  0.4985E+00  0.2558E+03
     77.857  0.4306E+00  0.2558E+03
     77.885  0.5072E+00  0.2558E+03
     77.912  0.1040E+01  0.2558E+03
     77.940  0.2269E+00  0.2558E+03
     77.968  0.2722E+00  0.2559E+03
     77.995  0.1772E+00  0.2559E+03
     78.023  0.2336E+00  0.2559E+03
     78.051  0.3736E-03  0.2559E+03
     78.079  0.2607E+00  0.2559E+03
     78.106  0.4060E+00  0.2559E+03
     78.134  0.5703E-01  0.2559E+03
     78.162  0.4716E+00  0.2559E+03
     78.189  0.3506E+00  0.2559E+03
     78.217  0.4157E+00  0.2559E+03
     78.245  0.3900E+00  0.2559E+03
     78.272  0.2860E-01  0.2559E+03
     78.300  0.8237E-01  0.2559E+03
     78.328  0.1148E-03  0.2559E+03
     78.355  0.6425E-01  0.2559E+03
     78.383  0.4345E+00  0.2559E+03
     78.411  0.2179E+00  0.2560E+03
     78.438  0.3561E+00  0.2560E+03
     78.466  0.2612E+00  0.2560E+03
     78.494  0.1112E-03  0.2560E+03
     78.521  0.7243E-01  0.2560E+03
     78.549  0.1852E+00  0.2560E+03
     78.577  0.2546E+00  0.2560E+03
     78.604  0.3137E-01  0.2560E+03
     78.632  0.2657E+00  0.2560E+03
     78.660  0.1614E-01  0.2560E+03
     78.687  0.1948E+00  0.2560E+03
     78.715  0.5942E-02  0.2560E+03
     78.743  0.6385E-09  0.2560E+03
     78.770  0.0000E+00  0.2560E+03
     78.798  0.0000E+00  0.2560E+03
     78.826  0.7985E-07  0.2560E+03
     78.854  0.1917E-01  0.2560E+03
     78.881  0.8332E-01  0.2560E+03
     78.909  0.1277E-03  0.2560E+03
     78.937  0.2027E-12  0.2560E+03
     78.964  0.0000E+00  0.2560E+03
     78.992  0.0000E+00  0.2560E+03
     79.020  0.0000E+00  0.2560E+03
     79.047  0.0000E+00  0.2560E+03
     79.075  0.0000E+00  0.2560E+03
     79.103  0.0000E+00  0.2560E+03
     79.130  0.0000E+00  0.2560E+03
     79.158  0.0000E+00  0.2560E+03
     79.186  0.0000E+00  0.2560E+03
     79.213  0.0000E+00  0.2560E+03
     79.241  0.0000E+00  0.2560E+03
     79.269  0.0000E+00  0.2560E+03
     79.296  0.0000E+00  0.2560E+03
     79.324  0.0000E+00  0.2560E+03
     79.352  0.0000E+00  0.2560E+03
     79.379  0.0000E+00  0.2560E+03
     79.407  0.0000E+00  0.2560E+03
     79.435  0.0000E+00  0.2560E+03
     79.462  0.0000E+00  0.2560E+03
     79.490  0.0000E+00  0.2560E+03
     79.518  0.0000E+00  0.2560E+03
     79.545  0.0000E+00  0.2560E+03
     79.573  0.0000E+00  0.2560E+03
     79.601  0.0000E+00  0.2560E+03
     79.628  0.0000E+00  0.2560E+03
     79.656  0.0000E+00  0.2560E+03
     79.684  0.0000E+00  0.2560E+03
     79.712  0.0000E+00  0.2560E+03
     79.739  0.0000E+00  0.2560E+03
     79.767  0.0000E+00  0.2560E+03
     79.795  0.0000E+00  0.2560E+03
     79.822  0.0000E+00  0.2560E+03
     79.850  0.0000E+00  0.2560E+03
     79.878  0.0000E+00  0.2560E+03
     79.905  0.0000E+00  0.2560E+03
     79.933  0.0000E+00  0.2560E+03
     79.961  0.0000E+00  0.2560E+03
     79.988  0.0000E+00  0.2560E+03
     80.016  0.0000E+00  0.2560E+03
     80.044  0.0000E+00  0.2560E+03
     80.071  0.0000E+00  0.2560E+03
     80.099  0.0000E+00  0.2560E+03
     80.127  0.0000E+00  0.2560E+03
     80.154  0.0000E+00  0.2560E+03
     80.182  0.0000E+00  0.2560E+03
     80.210  0.0000E+00  0.2560E+03
     80.237  0.0000E+00  0.2560E+03
     80.265  0.0000E+00  0.2560E+03
     80.293  0.0000E+00  0.2560E+03
     80.320  0.0000E+00  0.2560E+03
     80.348  0.0000E+00  0.2560E+03
     80.376  0.0000E+00  0.2560E+03
     80.403  0.0000E+00  0.2560E+03
     80.431  0.0000E+00  0.2560E+03
     80.459  0.0000E+00  0.2560E+03
     80.487  0.0000E+00  0.2560E+03
     80.514  0.0000E+00  0.2560E+03
     80.542  0.0000E+00  0.2560E+03
     80.570  0.0000E+00  0.2560E+03
     80.597  0.0000E+00  0.2560E+03
     80.625  0.0000E+00  0.2560E+03
     80.653  0.0000E+00  0.2560E+03
     80.680  0.0000E+00  0.2560E+03
     80.708  0.0000E+00  0.2560E+03
     80.736  0.0000E+00  0.2560E+03
     80.763  0.0000E+00  0.2560E+03
     80.791  0.0000E+00  0.2560E+03
     80.819  0.0000E+00  0.2560E+03
     80.846  0.0000E+00  0.2560E+03
     80.874  0.0000E+00  0.2560E+03
     80.902  0.0000E+00  0.2560E+03
     80.929  0.0000E+00  0.2560E+03
     80.957  0.0000E+00  0.2560E+03
     80.985  0.0000E+00  0.2560E+03
     81.012  0.0000E+00  0.2560E+03
     81.040  0.0000E+00  0.2560E+03
     81.068  0.0000E+00  0.2560E+03
     81.095  0.0000E+00  0.2560E+03
     81.123  0.0000E+00  0.2560E+03
     81.151  0.0000E+00  0.2560E+03
     81.178  0.0000E+00  0.2560E+03
     81.206  0.0000E+00  0.2560E+03
     81.234  0.0000E+00  0.2560E+03
     81.261  0.0000E+00  0.2560E+03
     81.289  0.0000E+00  0.2560E+03
     81.317  0.0000E+00  0.2560E+03
     81.345  0.0000E+00  0.2560E+03
     81.372  0.0000E+00  0.2560E+03
     81.400  0.0000E+00  0.2560E+03
     81.428  0.0000E+00  0.2560E+03
     81.455  0.0000E+00  0.2560E+03
     81.483  0.0000E+00  0.2560E+03
     81.511  0.0000E+00  0.2560E+03
     81.538  0.0000E+00  0.2560E+03
     81.566  0.0000E+00  0.2560E+03
     81.594  0.0000E+00  0.2560E+03
     81.621  0.0000E+00  0.2560E+03
     81.649  0.0000E+00  0.2560E+03
     81.677  0.0000E+00  0.2560E+03
     81.704  0.0000E+00  0.2560E+03
     81.732  0.0000E+00  0.2560E+03
     81.760  0.0000E+00  0.2560E+03
     81.787  0.0000E+00  0.2560E+03
     81.815  0.0000E+00  0.2560E+03
     81.843  0.0000E+00  0.2560E+03
     81.870  0.0000E+00  0.2560E+03
     81.898  0.0000E+00  0.2560E+03
     81.926  0.0000E+00  0.2560E+03
     81.953  0.0000E+00  0.2560E+03
     81.981  0.0000E+00  0.2560E+03
     82.009  0.0000E+00  0.2560E+03
     82.036  0.0000E+00  0.2560E+03
     82.064  0.0000E+00  0.2560E+03
     82.092  0.0000E+00  0.2560E+03
     82.120  0.0000E+00  0.2560E+03
     82.147  0.0000E+00  0.2560E+03
     82.175  0.0000E+00  0.2560E+03
     82.203  0.0000E+00  0.2560E+03
     82.230  0.0000E+00  0.2560E+03
     82.258  0.0000E+00  0.2560E+03
     82.286  0.0000E+00  0.2560E+03
     82.313  0.0000E+00  0.2560E+03
     82.341  0.0000E+00  0.2560E+03
     82.369  0.0000E+00  0.2560E+03
     82.396  0.0000E+00  0.2560E+03
     82.424  0.0000E+00  0.2560E+03
     82.452  0.0000E+00  0.2560E+03
     82.479  0.0000E+00  0.2560E+03
     82.507  0.0000E+00  0.2560E+03
     82.535  0.0000E+00  0.2560E+03
     82.562  0.0000E+00  0.2560E+03
     82.590  0.0000E+00  0.2560E+03
     82.618  0.0000E+00  0.2560E+03
     82.645  0.0000E+00  0.2560E+03
     82.673  0.0000E+00  0.2560E+03
     82.701  0.0000E+00  0.2560E+03
     82.728  0.0000E+00  0.2560E+03
     82.756  0.0000E+00  0.2560E+03
     82.784  0.0000E+00  0.2560E+03
     82.811  0.0000E+00  0.2560E+03
     82.839  0.0000E+00  0.2560E+03
     82.867  0.0000E+00  0.2560E+03
     82.894  0.0000E+00  0.2560E+03
     82.922  0.0000E+00  0.2560E+03
     82.950  0.0000E+00  0.2560E+03
     82.978  0.0000E+00  0.2560E+03
     83.005  0.0000E+00  0.2560E+03
     83.033  0.0000E+00  0.2560E+03
     83.061  0.0000E+00  0.2560E+03
     83.088  0.0000E+00  0.2560E+03
     83.116  0.0000E+00  0.2560E+03
     83.144  0.0000E+00  0.2560E+03
     83.171  0.0000E+00  0.2560E+03
     83.199  0.0000E+00  0.2560E+03
     83.227  0.0000E+00  0.2560E+03
     83.254  0.0000E+00  0.2560E+03
     83.282  0.0000E+00  0.2560E+03
     83.310  0.0000E+00  0.2560E+03
     83.337  0.0000E+00  0.2560E+03
     83.365  0.0000E+00  0.2560E+03
     83.393  0.0000E+00  0.2560E+03
     83.420  0.0000E+00  0.2560E+03
     83.448  0.0000E+00  0.2560E+03
     83.476  0.0000E+00  0.2560E+03
     83.503  0.0000E+00  0.2560E+03
     83.531  0.0000E+00  0.2560E+03
     83.559  0.0000E+00  0.2560E+03
     83.586  0.0000E+00  0.2560E+03
     83.614  0.0000E+00  0.2560E+03
     83.642  0.0000E+00  0.2560E+03
     83.669  0.0000E+00  0.2560E+03
     83.697  0.0000E+00  0.2560E+03
     83.725  0.0000E+00  0.2560E+03
     83.753  0.0000E+00  0.2560E+03
     83.780  0.0000E+00  0.2560E+03
     83.808  0.0000E+00  0.2560E+03
     83.836  0.0000E+00  0.2560E+03
     83.863  0.0000E+00  0.2560E+03
     83.891  0.0000E+00  0.2560E+03
