   2   2   0   0
  0.3953030E+02  0.2467000E-09  0.2467000E-09  0.1500000E-08  0.5000000E-15
  1.000000000000000E-004
  CAR 
 Dielectric                              
     84.03622107    -26.79499160 4000     -2.25309626      1.00000000
    -26.795  0.0000E+00  0.0000E+00
    -26.767  0.0000E+00  0.0000E+00
    -26.740  0.0000E+00  0.0000E+00
    -26.712  0.0000E+00  0.0000E+00
    -26.684  0.0000E+00  0.0000E+00
    -26.656  0.0000E+00  0.0000E+00
    -26.629  0.0000E+00  0.0000E+00
    -26.601  0.0000E+00  0.0000E+00
    -26.573  0.0000E+00  0.0000E+00
    -26.546  0.0000E+00  0.0000E+00
    -26.518  0.0000E+00  0.0000E+00
    -26.490  0.0000E+00  0.0000E+00
    -26.462  0.0000E+00  0.0000E+00
    -26.435  0.0000E+00  0.0000E+00
    -26.407  0.0000E+00  0.0000E+00
    -26.379  0.0000E+00  0.0000E+00
    -26.352  0.0000E+00  0.0000E+00
    -26.324  0.0000E+00  0.0000E+00
    -26.296  0.0000E+00  0.0000E+00
    -26.268  0.0000E+00  0.0000E+00
    -26.241  0.0000E+00  0.0000E+00
    -26.213  0.0000E+00  0.0000E+00
    -26.185  0.0000E+00  0.0000E+00
    -26.158  0.0000E+00  0.0000E+00
    -26.130  0.0000E+00  0.0000E+00
    -26.102  0.0000E+00  0.0000E+00
    -26.074  0.0000E+00  0.0000E+00
    -26.047  0.0000E+00  0.0000E+00
    -26.019  0.0000E+00  0.0000E+00
    -25.991  0.0000E+00  0.0000E+00
    -25.964  0.0000E+00  0.0000E+00
    -25.936  0.0000E+00  0.0000E+00
    -25.908  0.0000E+00  0.0000E+00
    -25.880  0.0000E+00  0.0000E+00
    -25.853  0.0000E+00  0.0000E+00
    -25.825  0.0000E+00  0.0000E+00
    -25.797  0.0000E+00  0.0000E+00
    -25.770  0.0000E+00  0.0000E+00
    -25.742  0.0000E+00  0.0000E+00
    -25.714  0.0000E+00  0.0000E+00
    -25.686  0.0000E+00  0.0000E+00
    -25.659  0.0000E+00  0.0000E+00
    -25.631  0.0000E+00  0.0000E+00
    -25.603  0.0000E+00  0.0000E+00
    -25.576  0.0000E+00  0.0000E+00
    -25.548  0.0000E+00  0.0000E+00
    -25.520  0.0000E+00  0.0000E+00
    -25.492  0.0000E+00  0.0000E+00
    -25.465  0.0000E+00  0.0000E+00
    -25.437  0.0000E+00  0.0000E+00
    -25.409  0.0000E+00  0.0000E+00
    -25.382  0.0000E+00  0.0000E+00
    -25.354  0.0000E+00  0.0000E+00
    -25.326  0.0000E+00  0.0000E+00
    -25.298  0.0000E+00  0.0000E+00
    -25.271  0.0000E+00  0.0000E+00
    -25.243  0.0000E+00  0.0000E+00
    -25.215  0.0000E+00  0.0000E+00
    -25.188  0.0000E+00  0.0000E+00
    -25.160  0.0000E+00  0.0000E+00
    -25.132  0.0000E+00  0.0000E+00
    -25.104  0.0000E+00  0.0000E+00
    -25.077  0.0000E+00  0.0000E+00
    -25.049  0.0000E+00  0.0000E+00
    -25.021  0.0000E+00  0.0000E+00
    -24.994  0.0000E+00  0.0000E+00
    -24.966  0.0000E+00  0.0000E+00
    -24.938  0.0000E+00  0.0000E+00
    -24.910  0.0000E+00  0.0000E+00
    -24.883  0.0000E+00  0.0000E+00
    -24.855  0.0000E+00  0.0000E+00
    -24.827  0.0000E+00  0.0000E+00
    -24.800  0.0000E+00  0.0000E+00
    -24.772  0.0000E+00  0.0000E+00
    -24.744  0.0000E+00  0.0000E+00
    -24.716  0.0000E+00  0.0000E+00
    -24.689  0.0000E+00  0.0000E+00
    -24.661  0.0000E+00  0.0000E+00
    -24.633  0.0000E+00  0.0000E+00
    -24.606  0.0000E+00  0.0000E+00
    -24.578  0.0000E+00  0.0000E+00
    -24.550  0.0000E+00  0.0000E+00
    -24.522  0.0000E+00  0.0000E+00
    -24.495  0.0000E+00  0.0000E+00
    -24.467  0.0000E+00  0.0000E+00
    -24.439  0.0000E+00  0.0000E+00
    -24.412  0.0000E+00  0.0000E+00
    -24.384  0.0000E+00  0.0000E+00
    -24.356  0.0000E+00  0.0000E+00
    -24.328  0.0000E+00  0.0000E+00
    -24.301  0.0000E+00  0.0000E+00
    -24.273  0.0000E+00  0.0000E+00
    -24.245  0.0000E+00  0.0000E+00
    -24.218  0.0000E+00  0.0000E+00
    -24.190  0.0000E+00  0.0000E+00
    -24.162  0.0000E+00  0.0000E+00
    -24.134  0.0000E+00  0.0000E+00
    -24.107  0.0000E+00  0.0000E+00
    -24.079  0.0000E+00  0.0000E+00
    -24.051  0.0000E+00  0.0000E+00
    -24.024  0.0000E+00  0.0000E+00
    -23.996  0.0000E+00  0.0000E+00
    -23.968  0.0000E+00  0.0000E+00
    -23.940  0.0000E+00  0.0000E+00
    -23.913  0.0000E+00  0.0000E+00
    -23.885  0.0000E+00  0.0000E+00
    -23.857  0.0000E+00  0.0000E+00
    -23.830  0.0000E+00  0.0000E+00
    -23.802  0.0000E+00  0.0000E+00
    -23.774  0.0000E+00  0.0000E+00
    -23.746  0.0000E+00  0.0000E+00
    -23.719  0.0000E+00  0.0000E+00
    -23.691  0.0000E+00  0.0000E+00
    -23.663  0.0000E+00  0.0000E+00
    -23.636  0.0000E+00  0.0000E+00
    -23.608  0.0000E+00  0.0000E+00
    -23.580  0.0000E+00  0.0000E+00
    -23.552  0.0000E+00  0.0000E+00
    -23.525  0.0000E+00  0.0000E+00
    -23.497  0.0000E+00  0.0000E+00
    -23.469  0.0000E+00  0.0000E+00
    -23.442  0.0000E+00  0.0000E+00
    -23.414  0.0000E+00  0.0000E+00
    -23.386  0.0000E+00  0.0000E+00
    -23.358  0.0000E+00  0.0000E+00
    -23.331  0.0000E+00  0.0000E+00
    -23.303  0.0000E+00  0.0000E+00
    -23.275  0.0000E+00  0.0000E+00
    -23.248  0.0000E+00  0.0000E+00
    -23.220  0.0000E+00  0.0000E+00
    -23.192  0.0000E+00  0.0000E+00
    -23.164  0.0000E+00  0.0000E+00
    -23.137  0.0000E+00  0.0000E+00
    -23.109  0.0000E+00  0.0000E+00
    -23.081  0.0000E+00  0.0000E+00
    -23.054  0.0000E+00  0.0000E+00
    -23.026  0.0000E+00  0.0000E+00
    -22.998  0.0000E+00  0.0000E+00
    -22.970  0.0000E+00  0.0000E+00
    -22.943  0.0000E+00  0.0000E+00
    -22.915  0.0000E+00  0.0000E+00
    -22.887  0.0000E+00  0.0000E+00
    -22.859  0.0000E+00  0.0000E+00
    -22.832  0.0000E+00  0.0000E+00
    -22.804  0.0000E+00  0.0000E+00
    -22.776  0.0000E+00  0.0000E+00
    -22.749  0.0000E+00  0.0000E+00
    -22.721  0.0000E+00  0.0000E+00
    -22.693  0.0000E+00  0.0000E+00
    -22.665  0.0000E+00  0.0000E+00
    -22.638  0.0000E+00  0.0000E+00
    -22.610  0.0000E+00  0.0000E+00
    -22.582  0.0000E+00  0.0000E+00
    -22.555  0.0000E+00  0.0000E+00
    -22.527  0.0000E+00  0.0000E+00
    -22.499  0.0000E+00  0.0000E+00
    -22.471  0.0000E+00  0.0000E+00
    -22.444  0.0000E+00  0.0000E+00
    -22.416  0.0000E+00  0.0000E+00
    -22.388  0.0000E+00  0.0000E+00
    -22.361  0.0000E+00  0.0000E+00
    -22.333  0.0000E+00  0.0000E+00
    -22.305  0.0000E+00  0.0000E+00
    -22.277  0.0000E+00  0.0000E+00
    -22.250  0.0000E+00  0.0000E+00
    -22.222  0.0000E+00  0.0000E+00
    -22.194  0.0000E+00  0.0000E+00
    -22.167  0.0000E+00  0.0000E+00
    -22.139  0.0000E+00  0.0000E+00
    -22.111  0.0000E+00  0.0000E+00
    -22.083  0.0000E+00  0.0000E+00
    -22.056  0.0000E+00  0.0000E+00
    -22.028  0.0000E+00  0.0000E+00
    -22.000  0.0000E+00  0.0000E+00
    -21.973  0.0000E+00  0.0000E+00
    -21.945  0.0000E+00  0.0000E+00
    -21.917  0.0000E+00  0.0000E+00
    -21.889  0.0000E+00  0.0000E+00
    -21.862  0.0000E+00  0.0000E+00
    -21.834  0.0000E+00  0.0000E+00
    -21.806  0.1226E-12  0.3399E-14
    -21.779  0.8139E-04  0.2256E-05
    -21.751  0.5967E-01  0.1656E-02
    -21.723  0.3879E+00  0.1241E-01
    -21.695  0.1426E+00  0.1636E-01
    -21.668  0.5284E+00  0.3100E-01
    -21.640  0.1404E+00  0.3489E-01
    -21.612  0.1303E+00  0.3850E-01
    -21.585  0.6639E+00  0.5690E-01
    -21.557  0.3064E+00  0.6540E-01
    -21.529  0.9221E-01  0.6795E-01
    -21.501  0.1074E+00  0.7093E-01
    -21.474  0.7651E+00  0.9213E-01
    -21.446  0.3203E+00  0.1010E+00
    -21.418  0.5462E-01  0.1025E+00
    -21.391  0.3421E+00  0.1120E+00
    -21.363  0.7090E-02  0.1122E+00
    -21.335  0.7358E+00  0.1326E+00
    -21.307  0.2476E+00  0.1395E+00
    -21.280  0.6004E+00  0.1561E+00
    -21.252  0.4974E-03  0.1561E+00
    -21.224  0.5023E-01  0.1575E+00
    -21.197  0.3465E+00  0.1671E+00
    -21.169  0.2948E+00  0.1753E+00
    -21.141  0.8423E+00  0.1986E+00
    -21.113  0.5663E-01  0.2002E+00
    -21.086  0.4490E+00  0.2126E+00
    -21.058  0.3461E+00  0.2222E+00
    -21.030  0.1771E-04  0.2222E+00
    -21.003  0.1913E-03  0.2222E+00
    -20.975  0.2970E+00  0.2305E+00
    -20.947  0.8427E+00  0.2538E+00
    -20.919  0.2550E+00  0.2609E+00
    -20.892  0.5927E+00  0.2773E+00
    -20.864  0.4466E-03  0.2773E+00
    -20.836  0.1151E+00  0.2805E+00
    -20.809  0.6784E+00  0.2993E+00
    -20.781  0.1684E-02  0.2994E+00
    -20.753  0.1627E-05  0.2994E+00
    -20.725  0.1172E+00  0.3026E+00
    -20.698  0.1035E+01  0.3313E+00
    -20.670  0.4377E+00  0.3434E+00
    -20.642  0.1439E+00  0.3474E+00
    -20.615  0.6502E+00  0.3654E+00
    -20.587  0.1046E-02  0.3655E+00
    -20.559  0.6978E-05  0.3655E+00
    -20.531  0.2815E+00  0.3733E+00
    -20.504  0.5135E+00  0.3875E+00
    -20.476  0.1578E-03  0.3875E+00
    -20.448  0.1965E+00  0.3930E+00
    -20.421  0.6002E+00  0.4096E+00
    -20.393  0.6981E+00  0.4289E+00
    -20.365  0.4839E+00  0.4423E+00
    -20.337  0.1001E-01  0.4426E+00
    -20.310  0.6231E+00  0.4599E+00
    -20.282  0.1714E+00  0.4646E+00
    -20.254  0.9999E-06  0.4646E+00
    -20.227  0.1185E-07  0.4646E+00
    -20.199  0.4158E-01  0.4658E+00
    -20.171  0.7451E+00  0.4864E+00
    -20.143  0.2483E+00  0.4933E+00
    -20.116  0.8540E+00  0.5170E+00
    -20.088  0.9903E-01  0.5197E+00
    -20.060  0.3855E+00  0.5304E+00
    -20.033  0.4157E+00  0.5419E+00
    -20.005  0.3758E+00  0.5524E+00
    -19.977  0.1613E-01  0.5528E+00
    -19.949  0.5801E+00  0.5689E+00
    -19.922  0.2147E+00  0.5748E+00
    -19.894  0.2319E-05  0.5748E+00
    -19.866  0.0000E+00  0.5748E+00
    -19.839  0.2606E-05  0.5748E+00
    -19.811  0.3668E+00  0.5850E+00
    -19.783  0.1225E+01  0.6189E+00
    -19.755  0.6945E+00  0.6382E+00
    -19.728  0.9969E-01  0.6410E+00
    -19.700  0.1118E-02  0.6410E+00
    -19.672  0.6544E+00  0.6591E+00
    -19.645  0.1397E+00  0.6630E+00
    -19.617  0.1609E+00  0.6675E+00
    -19.589  0.2367E+00  0.6740E+00
    -19.561  0.7503E-01  0.6761E+00
    -19.534  0.7166E+00  0.6960E+00
    -19.506  0.3656E-02  0.6961E+00
    -19.478  0.3022E-05  0.6961E+00
    -19.451  0.1364E+00  0.6998E+00
    -19.423  0.8197E+00  0.7225E+00
    -19.395  0.2785E+00  0.7303E+00
    -19.367  0.9719E+00  0.7572E+00
    -19.340  0.5764E+00  0.7732E+00
    -19.312  0.3179E-03  0.7732E+00
    -19.284  0.9517E-04  0.7732E+00
    -19.257  0.4748E+00  0.7863E+00
    -19.229  0.3203E+00  0.7952E+00
    -19.201  0.3731E-04  0.7952E+00
    -19.173  0.2122E+00  0.8011E+00
    -19.146  0.1854E+00  0.8062E+00
    -19.118  0.1455E+00  0.8103E+00
    -19.090  0.6486E+00  0.8283E+00
    -19.063  0.3262E-01  0.8292E+00
    -19.035  0.7516E+00  0.8500E+00
    -19.007  0.4619E+00  0.8628E+00
    -18.979  0.3452E+00  0.8724E+00
    -18.952  0.1038E-03  0.8724E+00
    -18.924  0.8205E+00  0.8951E+00
    -18.896  0.7697E+00  0.9164E+00
    -18.869  0.6192E-04  0.9164E+00
    -18.841  0.2534E-08  0.9164E+00
    -18.813  0.2351E-01  0.9171E+00
    -18.785  0.7549E+00  0.9380E+00
    -18.758  0.1675E-01  0.9385E+00
    -18.730  0.2294E-06  0.9385E+00
    -18.702  0.6853E-01  0.9404E+00
    -18.675  0.3285E+00  0.9495E+00
    -18.647  0.4900E-01  0.9508E+00
    -18.619  0.1338E+01  0.9879E+00
    -18.591  0.6013E+00  0.1005E+01
    -18.564  0.4663E-01  0.1006E+01
    -18.536  0.7415E+00  0.1026E+01
    -18.508  0.7485E-02  0.1027E+01
    -18.481  0.4127E-05  0.1027E+01
    -18.453  0.2484E+00  0.1034E+01
    -18.425  0.1067E+01  0.1063E+01
    -18.397  0.2754E+00  0.1071E+01
    -18.370  0.6328E-05  0.1071E+01
    -18.342  0.1066E-06  0.1071E+01
    -18.314  0.8769E-01  0.1073E+01
    -18.287  0.7047E+00  0.1093E+01
    -18.259  0.2804E-02  0.1093E+01
    -18.231  0.3035E-10  0.1093E+01
    -18.203  0.3425E-02  0.1093E+01
    -18.176  0.1038E+01  0.1122E+01
    -18.148  0.3573E+00  0.1132E+01
    -18.120  0.1069E+01  0.1161E+01
    -18.093  0.3163E+00  0.1170E+01
    -18.065  0.2700E+00  0.1177E+01
    -18.037  0.5250E+00  0.1192E+01
    -18.009  0.1810E-03  0.1192E+01
    -17.982  0.2122E-08  0.1192E+01
    -17.954  0.2197E-01  0.1193E+01
    -17.926  0.7553E+00  0.1213E+01
    -17.899  0.4885E+00  0.1227E+01
    -17.871  0.3245E+00  0.1236E+01
    -17.843  0.1312E-04  0.1236E+01
    -17.815  0.2158E-06  0.1236E+01
    -17.788  0.1094E+00  0.1239E+01
    -17.760  0.6839E+00  0.1258E+01
    -17.732  0.1496E-01  0.1258E+01
    -17.705  0.5578E+00  0.1274E+01
    -17.677  0.6213E+00  0.1291E+01
    -17.649  0.1302E+00  0.1295E+01
    -17.621  0.1058E+01  0.1324E+01
    -17.594  0.4799E-01  0.1325E+01
    -17.566  0.7441E+00  0.1346E+01
    -17.538  0.5107E+00  0.1360E+01
    -17.511  0.2925E+00  0.1368E+01
    -17.483  0.8241E-05  0.1368E+01
    -17.455  0.2454E-12  0.1368E+01
    -17.427  0.4169E-03  0.1368E+01
    -17.400  0.5878E+00  0.1385E+01
    -17.372  0.2080E+00  0.1390E+01
    -17.344  0.6464E+00  0.1408E+01
    -17.317  0.1478E+00  0.1412E+01
    -17.289  0.5922E-06  0.1412E+01
    -17.261  0.2787E-04  0.1412E+01
    -17.233  0.4401E+00  0.1425E+01
    -17.206  0.1146E+01  0.1456E+01
    -17.178  0.6727E+00  0.1475E+01
    -17.150  0.1263E+00  0.1478E+01
    -17.123  0.2599E-01  0.1479E+01
    -17.095  0.8635E+00  0.1503E+01
    -17.067  0.3032E+00  0.1511E+01
    -17.039  0.1318E+00  0.1515E+01
    -17.012  0.6917E+00  0.1534E+01
    -16.984  0.7540E+00  0.1555E+01
    -16.956  0.1310E-01  0.1556E+01
    -16.929  0.5682E-09  0.1556E+01
    -16.901  0.1162E-08  0.1556E+01
    -16.873  0.1740E-01  0.1556E+01
    -16.845  0.7551E+00  0.1577E+01
    -16.818  0.3206E+00  0.1586E+01
    -16.790  0.4972E+00  0.1600E+01
    -16.762  0.1266E-03  0.1600E+01
    -16.735  0.9480E-02  0.1600E+01
    -16.707  0.7827E+00  0.1622E+01
    -16.679  0.1195E+01  0.1655E+01
    -16.651  0.4241E+00  0.1666E+01
    -16.624  0.4103E+00  0.1678E+01
    -16.596  0.3578E+00  0.1688E+01
    -16.568  0.6035E+00  0.1704E+01
    -16.541  0.9833E+00  0.1732E+01
    -16.513  0.8928E-01  0.1734E+01
    -16.485  0.3535E+00  0.1744E+01
    -16.457  0.7462E+00  0.1765E+01
    -16.430  0.8930E-02  0.1765E+01
    -16.402  0.1024E+00  0.1768E+01
    -16.374  0.1077E+01  0.1798E+01
    -16.347  0.1304E-01  0.1798E+01
    -16.319  0.5076E-09  0.1798E+01
    -16.291  0.0000E+00  0.1798E+01
    -16.263  0.0000E+00  0.1798E+01
    -16.236  0.4188E-06  0.1798E+01
    -16.208  0.1336E+00  0.1802E+01
    -16.180  0.9337E+00  0.1828E+01
    -16.153  0.9254E+00  0.1853E+01
    -16.125  0.7480E+00  0.1874E+01
    -16.097  0.8043E+00  0.1896E+01
    -16.069  0.3331E-01  0.1897E+01
    -16.042  0.6433E-08  0.1897E+01
    -16.014  0.0000E+00  0.1897E+01
    -15.986  0.0000E+00  0.1897E+01
    -15.959  0.0000E+00  0.1897E+01
    -15.931  0.0000E+00  0.1897E+01
    -15.903  0.0000E+00  0.1897E+01
    -15.875  0.2766E-07  0.1897E+01
    -15.848  0.3539E-01  0.1898E+01
    -15.820  0.3602E+00  0.1908E+01
    -15.792  0.2007E-02  0.1908E+01
    -15.765  0.1819E-09  0.1908E+01
    -15.737  0.7900E-02  0.1908E+01
    -15.709  0.7752E+00  0.1930E+01
    -15.681  0.1176E+01  0.1962E+01
    -15.654  0.2884E-01  0.1963E+01
    -15.626  0.2565E-08  0.1963E+01
    -15.598  0.0000E+00  0.1963E+01
    -15.571  0.0000E+00  0.1963E+01
    -15.543  0.0000E+00  0.1963E+01
    -15.515  0.4856E-15  0.1963E+01
    -15.487  0.1285E-04  0.1963E+01
    -15.460  0.1868E+00  0.1968E+01
    -15.432  0.2108E+00  0.1974E+01
    -15.404  0.2635E-01  0.1975E+01
    -15.377  0.4633E+00  0.1988E+01
    -15.349  0.5340E+00  0.2003E+01
    -15.321  0.3991E+00  0.2014E+01
    -15.293  0.5649E+00  0.2029E+01
    -15.266  0.3245E-03  0.2029E+01
    -15.238  0.3506E+00  0.2039E+01
    -15.210  0.4445E+00  0.2051E+01
    -15.183  0.2629E-03  0.2051E+01
    -15.155  0.5419E+00  0.2066E+01
    -15.127  0.7351E+00  0.2087E+01
    -15.099  0.7084E+00  0.2106E+01
    -15.072  0.2460E-02  0.2107E+01
    -15.044  0.6566E-05  0.2107E+01
    -15.016  0.2775E+00  0.2114E+01
    -14.989  0.5175E+00  0.2129E+01
    -14.961  0.1643E-03  0.2129E+01
    -14.933  0.3514E-03  0.2129E+01
    -14.905  0.5752E+00  0.2145E+01
    -14.878  0.2231E+00  0.2151E+01
    -14.850  0.3916E+00  0.2162E+01
    -14.822  0.6726E+00  0.2180E+01
    -14.795  0.7945E+00  0.2202E+01
    -14.767  0.7590E+00  0.2223E+01
    -14.739  0.2939E-01  0.2224E+01
    -14.711  0.4585E-08  0.2224E+01
    -14.684  0.4414E-14  0.2224E+01
    -14.656  0.7395E-04  0.2224E+01
    -14.628  0.8807E+00  0.2248E+01
    -14.601  0.1107E+01  0.2279E+01
    -14.573  0.3834E-03  0.2279E+01
    -14.545  0.5360E+00  0.2294E+01
    -14.517  0.1054E+01  0.2323E+01
    -14.490  0.3066E+00  0.2332E+01
    -14.462  0.4889E+00  0.2345E+01
    -14.434  0.1139E-03  0.2345E+01
    -14.407  0.6965E-01  0.2347E+01
    -14.379  0.1458E+01  0.2388E+01
    -14.351  0.6349E-01  0.2389E+01
    -14.323  0.5955E+00  0.2406E+01
    -14.296  0.1992E+00  0.2411E+01
    -14.268  0.1744E-05  0.2411E+01
    -14.240  0.3096E-07  0.2411E+01
    -14.213  0.5819E-01  0.2413E+01
    -14.185  0.8110E+00  0.2435E+01
    -14.157  0.5105E+00  0.2450E+01
    -14.129  0.1004E+01  0.2477E+01
    -14.102  0.4937E+00  0.2491E+01
    -14.074  0.3039E+00  0.2500E+01
    -14.046  0.9746E-05  0.2500E+01
    -14.019  0.5416E-13  0.2500E+01
    -13.991  0.2809E-03  0.2500E+01
    -13.963  0.1010E+01  0.2528E+01
    -13.935  0.5800E+00  0.2544E+01
    -13.908  0.1592E-04  0.2544E+01
    -13.880  0.1666E-03  0.2544E+01
    -13.852  0.5186E+00  0.2558E+01
    -13.824  0.2764E+00  0.2566E+01
    -13.797  0.5348E-02  0.2566E+01
    -13.769  0.8061E+00  0.2588E+01
    -13.741  0.7753E+00  0.2610E+01
    -13.714  0.3907E-02  0.2610E+01
    -13.686  0.5501E+00  0.2625E+01
    -13.658  0.2448E+00  0.2632E+01
    -13.630  0.3900E-05  0.2632E+01
    -13.603  0.9164E-02  0.2632E+01
    -13.575  0.7464E+00  0.2653E+01
    -13.547  0.3994E-01  0.2654E+01
    -13.520  0.5738E+00  0.2670E+01
    -13.492  0.2211E+00  0.2676E+01
    -13.464  0.2599E-05  0.2676E+01
    -13.436  0.4933E-02  0.2676E+01
    -13.409  0.6697E+00  0.2695E+01
    -13.381  0.3615E+00  0.2705E+01
    -13.353  0.5787E+00  0.2721E+01
    -13.326  0.7548E+00  0.2742E+01
    -13.298  0.1586E-01  0.2742E+01
    -13.270  0.1329E-01  0.2742E+01
    -13.242  0.7529E+00  0.2763E+01
    -13.215  0.2905E-01  0.2764E+01
    -13.187  0.4443E-08  0.2764E+01
    -13.159  0.0000E+00  0.2764E+01
    -13.132  0.3803E-09  0.2764E+01
    -13.104  0.1114E-01  0.2764E+01
    -13.076  0.7503E+00  0.2785E+01
    -13.048  0.1247E+00  0.2789E+01
    -13.021  0.1456E+01  0.2829E+01
    -12.993  0.4354E-01  0.2830E+01
    -12.965  0.4066E-01  0.2831E+01
    -12.938  0.7457E+00  0.2852E+01
    -12.910  0.8860E-02  0.2852E+01
    -12.882  0.2175E-09  0.2852E+01
    -12.854  0.5212E-07  0.2852E+01
    -12.827  0.6938E-01  0.2854E+01
    -12.799  0.7340E+00  0.2874E+01
    -12.771  0.1237E+00  0.2878E+01
    -12.744  0.6542E-03  0.2878E+01
    -12.716  0.3945E+00  0.2889E+01
    -12.688  0.4006E+00  0.2900E+01
    -12.660  0.1749E+00  0.2905E+01
    -12.633  0.1044E+01  0.2934E+01
    -12.605  0.7600E+00  0.2955E+01
    -12.577  0.9298E-02  0.2955E+01
    -12.550  0.1720E+00  0.2960E+01
    -12.522  0.5522E+00  0.2975E+01
    -12.494  0.4684E+00  0.2988E+01
    -12.466  0.1195E+00  0.2991E+01
    -12.439  0.2781E+00  0.2999E+01
    -12.411  0.3583E+00  0.3009E+01
    -12.383  0.4369E+00  0.3021E+01
    -12.356  0.7942E-04  0.3021E+01
    -12.328  0.2049E+00  0.3027E+01
    -12.300  0.1927E+00  0.3032E+01
    -12.272  0.4843E+00  0.3046E+01
    -12.245  0.1093E+01  0.3076E+01
    -12.217  0.1464E-01  0.3076E+01
    -12.189  0.6557E+00  0.3094E+01
    -12.162  0.1383E+00  0.3098E+01
    -12.134  0.6985E-01  0.3100E+01
    -12.106  0.1077E+01  0.3130E+01
    -12.078  0.1237E+01  0.3164E+01
    -12.051  0.1420E-02  0.3164E+01
    -12.023  0.1847E-11  0.3164E+01
    -11.995  0.0000E+00  0.3164E+01
    -11.968  0.0000E+00  0.3164E+01
    -11.940  0.0000E+00  0.3164E+01
    -11.912  0.1324E-07  0.3164E+01
    -11.884  0.2758E-01  0.3165E+01
    -11.857  0.4067E+00  0.3176E+01
    -11.829  0.1441E+01  0.3216E+01
    -11.801  0.1722E+00  0.3221E+01
    -11.774  0.7685E+00  0.3242E+01
    -11.746  0.1589E+01  0.3286E+01
    -11.718  0.3664E+00  0.3297E+01
    -11.690  0.2151E-04  0.3297E+01
    -11.663  0.8828E-15  0.3297E+01
    -11.635  0.2412E-04  0.3297E+01
    -11.607  0.3731E+00  0.3307E+01
    -11.580  0.7988E+00  0.3329E+01
    -11.552  0.2084E-01  0.3330E+01
    -11.524  0.5924E-08  0.3330E+01
    -11.496  0.7026E-04  0.3330E+01
    -11.469  0.4510E+00  0.3342E+01
    -11.441  0.3562E+00  0.3352E+01
    -11.413  0.7517E+00  0.3373E+01
    -11.386  0.4831E+00  0.3386E+01
    -11.358  0.4706E+00  0.3399E+01
    -11.330  0.6668E+00  0.3418E+01
    -11.302  0.2157E+00  0.3424E+01
    -11.275  0.5625E+00  0.3439E+01
    -11.247  0.4159E+00  0.3451E+01
    -11.219  0.4605E-04  0.3451E+01
    -11.192  0.1818E+00  0.3456E+01
    -11.164  0.6128E+00  0.3473E+01
    -11.136  0.1419E-01  0.3473E+01
    -11.108  0.7531E+00  0.3494E+01
    -11.081  0.1279E+00  0.3498E+01
    -11.053  0.8787E+00  0.3522E+01
    -11.025  0.1317E+01  0.3559E+01
    -10.998  0.4892E+00  0.3572E+01
    -10.970  0.3482E+00  0.3582E+01
    -10.942  0.4830E-01  0.3583E+01
    -10.914  0.7230E-07  0.3583E+01
    -10.887  0.0000E+00  0.3583E+01
    -10.859  0.1934E-12  0.3583E+01
    -10.831  0.3715E-03  0.3583E+01
    -10.804  0.5793E+00  0.3599E+01
    -10.776  0.2155E+00  0.3605E+01
    -10.748  0.8688E-01  0.3608E+01
    -10.720  0.7056E+00  0.3627E+01
    -10.693  0.7532E+00  0.3648E+01
    -10.665  0.1505E+01  0.3690E+01
    -10.637  0.9135E+00  0.3715E+01
    -10.610  0.1190E-01  0.3715E+01
    -10.582  0.5788E+00  0.3731E+01
    -10.554  0.3982E+00  0.3742E+01
    -10.526  0.2154E+00  0.3748E+01
    -10.499  0.1633E+00  0.3753E+01
    -10.471  0.6311E+00  0.3770E+01
    -10.443  0.2041E-01  0.3771E+01
    -10.416  0.7554E+00  0.3792E+01
    -10.388  0.2015E-01  0.3792E+01
    -10.360  0.1696E-08  0.3792E+01
    -10.332  0.7101E-09  0.3792E+01
    -10.305  0.1432E-01  0.3793E+01
    -10.277  0.9229E+00  0.3818E+01
    -10.249  0.1046E+01  0.3847E+01
    -10.222  0.1132E+00  0.3851E+01
    -10.194  0.1085E+01  0.3881E+01
    -10.166  0.7806E+00  0.3902E+01
    -10.138  0.1353E-01  0.3903E+01
    -10.111  0.3841E+00  0.3913E+01
    -10.083  0.5003E+00  0.3927E+01
    -10.055  0.3862E+00  0.3938E+01
    -10.028  0.7140E+00  0.3958E+01
    -10.000  0.1144E+00  0.3961E+01
     -9.972  0.6824E+00  0.3980E+01
     -9.944  0.2712E-01  0.3980E+01
     -9.917  0.7544E+00  0.4001E+01
     -9.889  0.3950E+00  0.4012E+01
     -9.861  0.1184E+01  0.4045E+01
     -9.834  0.4259E+00  0.4057E+01
     -9.806  0.8585E+00  0.4081E+01
     -9.778  0.3039E+00  0.4089E+01
     -9.750  0.4261E+00  0.4101E+01
     -9.723  0.6759E-01  0.4103E+01
     -9.695  0.6306E+00  0.4120E+01
     -9.667  0.9640E+00  0.4147E+01
     -9.640  0.8010E+00  0.4169E+01
     -9.612  0.6695E+00  0.4188E+01
     -9.584  0.9276E+00  0.4214E+01
     -9.556  0.1963E+01  0.4268E+01
     -9.529  0.6488E+00  0.4286E+01
     -9.501  0.5623E+00  0.4302E+01
     -9.473  0.9343E+00  0.4327E+01
     -9.446  0.8740E+00  0.4352E+01
     -9.418  0.9347E+00  0.4378E+01
     -9.390  0.3173E-01  0.4378E+01
     -9.362  0.7050E+00  0.4398E+01
     -9.335  0.7300E+00  0.4418E+01
     -9.307  0.9202E+00  0.4444E+01
     -9.279  0.1622E+00  0.4448E+01
     -9.252  0.1175E+01  0.4481E+01
     -9.224  0.7531E+00  0.4502E+01
     -9.196  0.4327E+00  0.4514E+01
     -9.168  0.8401E+00  0.4537E+01
     -9.141  0.1342E+01  0.4574E+01
     -9.113  0.8875E+00  0.4599E+01
     -9.085  0.4425E+00  0.4611E+01
     -9.058  0.1819E+01  0.4661E+01
     -9.030  0.4694E+00  0.4674E+01
     -9.002  0.1215E+01  0.4708E+01
     -8.974  0.3149E-01  0.4709E+01
     -8.947  0.1174E+00  0.4712E+01
     -8.919  0.2530E+01  0.4782E+01
     -8.891  0.1439E+01  0.4822E+01
     -8.864  0.6016E+00  0.4839E+01
     -8.836  0.4803E+00  0.4852E+01
     -8.808  0.3641E+00  0.4862E+01
     -8.780  0.4364E+00  0.4874E+01
     -8.753  0.1405E+01  0.4913E+01
     -8.725  0.1597E+01  0.4958E+01
     -8.697  0.1362E+01  0.4995E+01
     -8.670  0.1122E+01  0.5026E+01
     -8.642  0.1002E+01  0.5054E+01
     -8.614  0.1830E+01  0.5105E+01
     -8.586  0.1218E+01  0.5139E+01
     -8.559  0.2099E-02  0.5139E+01
     -8.531  0.1234E+01  0.5173E+01
     -8.503  0.1687E+01  0.5220E+01
     -8.476  0.6566E+00  0.5238E+01
     -8.448  0.7820E+00  0.5260E+01
     -8.420  0.8658E+00  0.5284E+01
     -8.392  0.1248E+01  0.5318E+01
     -8.365  0.6821E+00  0.5337E+01
     -8.337  0.4619E-01  0.5338E+01
     -8.309  0.1525E+01  0.5381E+01
     -8.282  0.1211E+01  0.5414E+01
     -8.254  0.6329E+00  0.5432E+01
     -8.226  0.1344E+01  0.5469E+01
     -8.198  0.9593E+00  0.5495E+01
     -8.171  0.6977E+00  0.5515E+01
     -8.143  0.7368E+00  0.5535E+01
     -8.115  0.8700E-02  0.5535E+01
     -8.088  0.7252E+00  0.5556E+01
     -8.060  0.3043E+00  0.5564E+01
     -8.032  0.5959E+00  0.5581E+01
     -8.004  0.1340E+01  0.5618E+01
     -7.977  0.1061E+01  0.5647E+01
     -7.949  0.7745E+00  0.5669E+01
     -7.921  0.1690E+01  0.5715E+01
     -7.894  0.2643E+00  0.5723E+01
     -7.866  0.3574E+00  0.5733E+01
     -7.838  0.4388E+00  0.5745E+01
     -7.810  0.3957E+00  0.5756E+01
     -7.783  0.1201E+01  0.5789E+01
     -7.755  0.8404E+00  0.5812E+01
     -7.727  0.8615E+00  0.5836E+01
     -7.700  0.1215E+01  0.5870E+01
     -7.672  0.2565E+00  0.5877E+01
     -7.644  0.4610E-05  0.5877E+01
     -7.616  0.3473E-03  0.5877E+01
     -7.589  0.1000E+01  0.5905E+01
     -7.561  0.2091E+01  0.5963E+01
     -7.533  0.1466E+00  0.5967E+01
     -7.506  0.1046E+01  0.5996E+01
     -7.478  0.2702E+00  0.6003E+01
     -7.450  0.6227E+00  0.6020E+01
     -7.422  0.1388E+01  0.6059E+01
     -7.395  0.1942E+00  0.6064E+01
     -7.367  0.8904E-01  0.6067E+01
     -7.339  0.4800E+00  0.6080E+01
     -7.312  0.6234E+00  0.6097E+01
     -7.284  0.6577E+00  0.6116E+01
     -7.256  0.5352E+00  0.6130E+01
     -7.228  0.7504E+00  0.6151E+01
     -7.201  0.1228E+01  0.6185E+01
     -7.173  0.2295E-01  0.6186E+01
     -7.145  0.8536E+00  0.6209E+01
     -7.118  0.1785E+01  0.6259E+01
     -7.090  0.8906E+00  0.6284E+01
     -7.062  0.6917E+00  0.6303E+01
     -7.034  0.1403E+00  0.6307E+01
     -7.007  0.4942E-06  0.6307E+01
     -6.979  0.3202E-03  0.6307E+01
     -6.951  0.5688E+00  0.6322E+01
     -6.924  0.8116E+00  0.6345E+01
     -6.896  0.4813E+00  0.6358E+01
     -6.868  0.3921E+00  0.6369E+01
     -6.840  0.8643E+00  0.6393E+01
     -6.813  0.1795E+00  0.6398E+01
     -6.785  0.2222E+01  0.6460E+01
     -6.757  0.6852E-01  0.6462E+01
     -6.730  0.7576E+00  0.6483E+01
     -6.702  0.7147E+00  0.6502E+01
     -6.674  0.2119E+00  0.6508E+01
     -6.646  0.6778E+00  0.6527E+01
     -6.619  0.2745E-02  0.6527E+01
     -6.591  0.8972E+00  0.6552E+01
     -6.563  0.1458E+01  0.6592E+01
     -6.536  0.2924E-01  0.6593E+01
     -6.508  0.7858E-06  0.6593E+01
     -6.480  0.1684E+00  0.6598E+01
     -6.452  0.2093E+01  0.6656E+01
     -6.425  0.5219E+00  0.6670E+01
     -6.397  0.4304E-04  0.6670E+01
     -6.369  0.1327E-01  0.6671E+01
     -6.342  0.1019E+01  0.6699E+01
     -6.314  0.1608E+00  0.6703E+01
     -6.286  0.2715E+00  0.6711E+01
     -6.258  0.7013E+00  0.6730E+01
     -6.231  0.1202E+01  0.6764E+01
     -6.203  0.6084E+00  0.6781E+01
     -6.175  0.7103E-01  0.6782E+01
     -6.148  0.1250E+01  0.6817E+01
     -6.120  0.1020E+01  0.6845E+01
     -6.092  0.5406E-01  0.6847E+01
     -6.064  0.1257E+01  0.6882E+01
     -6.037  0.7111E+00  0.6901E+01
     -6.009  0.1036E-01  0.6902E+01
     -5.981  0.5772E-06  0.6902E+01
     -5.954  0.8960E-01  0.6904E+01
     -5.926  0.9081E+00  0.6929E+01
     -5.898  0.1972E+00  0.6935E+01
     -5.870  0.7076E+00  0.6954E+01
     -5.843  0.9807E+00  0.6982E+01
     -5.815  0.6929E+00  0.7001E+01
     -5.787  0.2407E-02  0.7001E+01
     -5.760  0.4948E+00  0.7015E+01
     -5.732  0.1098E+01  0.7045E+01
     -5.704  0.7409E+00  0.7066E+01
     -5.676  0.3261E+00  0.7075E+01
     -5.649  0.3760E+00  0.7085E+01
     -5.621  0.9517E+00  0.7111E+01
     -5.593  0.7632E+00  0.7133E+01
     -5.566  0.1530E+00  0.7137E+01
     -5.538  0.1625E+01  0.7182E+01
     -5.510  0.2298E+00  0.7188E+01
     -5.482  0.7399E-02  0.7188E+01
     -5.455  0.3770E+00  0.7199E+01
     -5.427  0.1919E+00  0.7204E+01
     -5.399  0.9861E+00  0.7232E+01
     -5.372  0.2529E+00  0.7239E+01
     -5.344  0.2004E+00  0.7244E+01
     -5.316  0.7528E+00  0.7265E+01
     -5.288  0.4265E-01  0.7266E+01
     -5.261  0.3636E+00  0.7276E+01
     -5.233  0.1288E+01  0.7312E+01
     -5.205  0.4561E+00  0.7325E+01
     -5.178  0.7544E+00  0.7345E+01
     -5.150  0.2561E-01  0.7346E+01
     -5.122  0.4773E+00  0.7359E+01
     -5.094  0.4035E+00  0.7371E+01
     -5.067  0.7066E+00  0.7390E+01
     -5.039  0.2989E+00  0.7398E+01
     -5.011  0.4991E+00  0.7412E+01
     -4.983  0.1298E-03  0.7412E+01
     -4.956  0.1559E-02  0.7412E+01
     -4.928  0.6744E+00  0.7431E+01
     -4.900  0.4296E+00  0.7443E+01
     -4.873  0.8721E-01  0.7445E+01
     -4.845  0.1083E-01  0.7446E+01
     -4.817  0.7498E+00  0.7466E+01
     -4.789  0.3460E-01  0.7467E+01
     -4.762  0.1519E-05  0.7467E+01
     -4.734  0.2603E+00  0.7475E+01
     -4.706  0.1800E+01  0.7524E+01
     -4.679  0.6922E+00  0.7544E+01
     -4.651  0.5762E+00  0.7560E+01
     -4.623  0.1037E+01  0.7588E+01
     -4.595  0.7466E+00  0.7609E+01
     -4.568  0.1478E+01  0.7650E+01
     -4.540  0.5664E+00  0.7666E+01
     -4.512  0.4027E-04  0.7666E+01
     -4.485  0.5079E-13  0.7666E+01
     -4.457  0.1357E-03  0.7666E+01
     -4.429  0.2780E+00  0.7673E+01
     -4.401  0.1195E+00  0.7677E+01
     -4.374  0.1770E-05  0.7677E+01
     -4.346  0.1840E-01  0.7677E+01
     -4.318  0.7553E+00  0.7698E+01
     -4.291  0.2165E-01  0.7699E+01
     -4.263  0.5182E+00  0.7713E+01
     -4.235  0.4075E+00  0.7724E+01
     -4.207  0.1550E+01  0.7767E+01
     -4.180  0.1102E+01  0.7798E+01
     -4.152  0.4676E-03  0.7798E+01
     -4.124  0.6420E-01  0.7800E+01
     -4.097  0.3327E+00  0.7809E+01
     -4.069  0.6717E-03  0.7809E+01
     -4.041  0.1464E-11  0.7809E+01
     -4.013  0.0000E+00  0.7809E+01
     -3.986  0.1707E-09  0.7809E+01
     -3.958  0.8012E-02  0.7809E+01
     -3.930  0.7432E+00  0.7830E+01
     -3.903  0.4394E-01  0.7831E+01
     -3.875  0.1384E-07  0.7831E+01
     -3.847  0.1812E-06  0.7831E+01
     -3.819  0.1037E+00  0.7834E+01
     -3.792  0.6895E+00  0.7853E+01
     -3.764  0.2065E-02  0.7853E+01
     -3.736  0.9560E-01  0.7856E+01
     -3.709  0.6985E+00  0.7875E+01
     -3.681  0.6654E+00  0.7894E+01
     -3.653  0.1988E+00  0.7899E+01
     -3.625  0.3291E+00  0.7908E+01
     -3.598  0.5959E-03  0.7908E+01
     -3.570  0.1129E-11  0.7908E+01
     -3.542  0.0000E+00  0.7908E+01
     -3.515  0.0000E+00  0.7908E+01
     -3.487  0.0000E+00  0.7908E+01
     -3.459  0.3531E-15  0.7908E+01
     -3.431  0.1486E-04  0.7908E+01
     -3.404  0.3334E+00  0.7917E+01
     -3.376  0.4617E+00  0.7930E+01
     -3.348  0.8056E-04  0.7930E+01
     -3.321  0.0000E+00  0.7930E+01
     -3.293  0.6621E-15  0.7930E+01
     -3.265  0.2082E-04  0.7930E+01
     -3.237  0.3579E+00  0.7940E+01
     -3.210  0.4372E+00  0.7952E+01
     -3.182  0.9585E-01  0.7955E+01
     -3.154  0.3015E+00  0.7963E+01
     -3.127  0.2583E-03  0.7963E+01
     -3.099  0.1916E-12  0.7963E+01
     -3.071  0.3353E-11  0.7963E+01
     -3.043  0.9805E-03  0.7963E+01
     -3.016  0.3434E+00  0.7973E+01
     -2.988  0.5325E-01  0.7974E+01
     -2.960  0.9879E-07  0.7974E+01
     -2.933  0.0000E+00  0.7974E+01
     -2.905  0.0000E+00  0.7974E+01
     -2.877  0.0000E+00  0.7974E+01
     -2.849  0.0000E+00  0.7974E+01
     -2.822  0.0000E+00  0.7974E+01
     -2.794  0.1945E-12  0.7974E+01
     -2.766  0.3726E-03  0.7974E+01
     -2.739  0.5796E+00  0.7990E+01
     -2.711  0.2153E+00  0.7996E+01
     -2.683  0.2344E-05  0.7996E+01
     -2.655  0.0000E+00  0.7996E+01
     -2.628  0.0000E+00  0.7996E+01
     -2.600  0.0000E+00  0.7996E+01
     -2.572  0.0000E+00  0.7996E+01
     -2.545  0.0000E+00  0.7996E+01
     -2.517  0.0000E+00  0.7996E+01
     -2.489  0.0000E+00  0.7996E+01
     -2.461  0.0000E+00  0.7996E+01
     -2.434  0.0000E+00  0.7996E+01
     -2.406  0.0000E+00  0.7996E+01
     -2.378  0.0000E+00  0.7996E+01
     -2.351  0.0000E+00  0.7996E+01
     -2.323  0.0000E+00  0.7996E+01
     -2.295  0.3555E-09  0.7996E+01
     -2.267  0.5607E-02  0.7996E+01
     -2.240  0.2517E+00  0.8003E+01
     -2.212  0.7806E-02  0.8004E+01
     -2.184  0.8358E-09  0.8004E+01
     -2.157  0.0000E+00  0.8004E+01
     -2.129  0.0000E+00  0.8004E+01
     -2.101  0.0000E+00  0.8004E+01
     -2.073  0.0000E+00  0.8004E+01
     -2.046  0.0000E+00  0.8004E+01
     -2.018  0.0000E+00  0.8004E+01
     -1.990  0.0000E+00  0.8004E+01
     -1.963  0.0000E+00  0.8004E+01
     -1.935  0.0000E+00  0.8004E+01
     -1.907  0.0000E+00  0.8004E+01
     -1.879  0.0000E+00  0.8004E+01
     -1.852  0.0000E+00  0.8004E+01
     -1.824  0.8065E-13  0.8004E+01
     -1.796  0.2422E-03  0.8004E+01
     -1.769  0.5474E+00  0.8019E+01
     -1.741  0.2476E+00  0.8026E+01
     -1.713  0.4083E-05  0.8026E+01
     -1.685  0.0000E+00  0.8026E+01
     -1.658  0.0000E+00  0.8026E+01
     -1.630  0.0000E+00  0.8026E+01
     -1.602  0.0000E+00  0.8026E+01
     -1.575  0.1324E-14  0.8026E+01
     -1.547  0.2156E-04  0.8026E+01
     -1.519  0.2065E+00  0.8031E+01
     -1.491  0.1911E+00  0.8037E+01
     -1.464  0.1441E-04  0.8037E+01
     -1.436  0.0000E+00  0.8037E+01
     -1.408  0.0000E+00  0.8037E+01
     -1.381  0.1122E-07  0.8037E+01
     -1.353  0.2604E-01  0.8037E+01
     -1.325  0.3688E+00  0.8048E+01
     -1.297  0.5972E+00  0.8064E+01
     -1.270  0.2007E+00  0.8070E+01
     -1.242  0.1792E-05  0.8070E+01
     -1.214  0.3989E-03  0.8070E+01
     -1.187  0.5845E+00  0.8086E+01
     -1.159  0.2102E+00  0.8092E+01
     -1.131  0.2140E-05  0.8092E+01
     -1.103  0.0000E+00  0.8092E+01
     -1.076  0.3431E-12  0.8092E+01
     -1.048  0.3410E-03  0.8092E+01
     -1.020  0.3112E+00  0.8100E+01
     -0.993  0.8610E-01  0.8103E+01
     -0.965  0.5088E-06  0.8103E+01
     -0.937  0.0000E+00  0.8103E+01
     -0.909  0.0000E+00  0.8103E+01
     -0.882  0.8647E-07  0.8103E+01
     -0.854  0.1393E+00  0.8107E+01
     -0.826  0.2312E+01  0.8171E+01
     -0.799  0.7277E+00  0.8191E+01
     -0.771  0.2381E-02  0.8191E+01
     -0.743  0.3333E+00  0.8200E+01
     -0.715  0.6361E-01  0.8202E+01
     -0.688  0.1775E-06  0.8202E+01
     -0.660  0.3996E-05  0.8202E+01
     -0.632  0.2926E+00  0.8210E+01
     -0.605  0.8988E+00  0.8235E+01
     -0.577  0.6318E+00  0.8253E+01
     -0.549  0.1022E+01  0.8281E+01
     -0.521  0.6961E+00  0.8300E+01
     -0.494  0.2531E+00  0.8307E+01
     -0.466  0.5964E+00  0.8324E+01
     -0.438  0.7555E+00  0.8345E+01
     -0.411  0.3176E+00  0.8353E+01
     -0.383  0.1273E+01  0.8389E+01
     -0.355  0.2279E-01  0.8389E+01
     -0.327  0.3368E+00  0.8399E+01
     -0.300  0.1158E+01  0.8431E+01
     -0.272  0.4928E+00  0.8444E+01
     -0.244  0.1450E-02  0.8444E+01
     -0.217  0.6831E+00  0.8463E+01
     -0.189  0.5015E+00  0.8477E+01
     -0.161  0.6771E-02  0.8478E+01
     -0.133  0.1354E+00  0.8481E+01
     -0.106  0.6586E+00  0.8500E+01
     -0.078  0.1199E-02  0.8500E+01
     -0.050  0.2331E-11  0.8500E+01
     -0.023  0.1768E-03  0.8500E+01
      0.005  0.5232E+00  0.8514E+01
      0.033  0.3265E+00  0.8523E+01
      0.061  0.1493E+01  0.8564E+01
      0.088  0.4269E-01  0.8566E+01
      0.116  0.7346E-08  0.8566E+01
      0.144  0.9477E-07  0.8566E+01
      0.171  0.8442E-01  0.8568E+01
      0.199  0.7078E+00  0.8588E+01
      0.227  0.5926E-02  0.8588E+01
      0.255  0.1030E+01  0.8616E+01
      0.282  0.5569E+00  0.8632E+01
      0.310  0.5646E-03  0.8632E+01
      0.338  0.5994E+00  0.8648E+01
      0.365  0.5619E+00  0.8664E+01
      0.393  0.3100E-01  0.8665E+01
      0.421  0.1865E-07  0.8665E+01
      0.449  0.1885E-05  0.8665E+01
      0.476  0.2034E+00  0.8670E+01
      0.504  0.5914E+00  0.8687E+01
      0.532  0.4384E-03  0.8687E+01
      0.559  0.2724E-12  0.8687E+01
      0.587  0.5453E-09  0.8687E+01
      0.615  0.1289E-01  0.8687E+01
      0.643  0.7525E+00  0.8708E+01
      0.670  0.1335E+00  0.8712E+01
      0.698  0.1452E+01  0.8752E+01
      0.726  0.3461E-01  0.8753E+01
      0.753  0.5790E-08  0.8753E+01
      0.781  0.5337E-05  0.8753E+01
      0.809  0.2642E+00  0.8760E+01
      0.837  0.5311E+00  0.8775E+01
      0.864  0.3054E+00  0.8783E+01
      0.892  0.9221E-01  0.8786E+01
      0.920  0.5094E+00  0.8800E+01
      0.947  0.2857E+00  0.8808E+01
      0.975  0.7983E-05  0.8808E+01
      1.003  0.2406E-01  0.8809E+01
      1.031  0.7886E+00  0.8831E+01
      1.058  0.7448E+00  0.8851E+01
      1.086  0.1513E+00  0.8855E+01
      1.114  0.3786E+00  0.8866E+01
      1.141  0.3623E+00  0.8876E+01
      1.169  0.3574E+00  0.8886E+01
      1.197  0.4539E+00  0.8898E+01
      1.225  0.7536E+00  0.8919E+01
      1.252  0.2947E-01  0.8920E+01
      1.280  0.3589E+00  0.8930E+01
      1.308  0.3679E-01  0.8931E+01
      1.335  0.3001E-02  0.8931E+01
      1.363  0.1513E+01  0.8973E+01
      1.391  0.9760E+00  0.9000E+01
      1.419  0.3946E+00  0.9011E+01
      1.446  0.6971E+00  0.9030E+01
      1.474  0.8794E+00  0.9055E+01
      1.502  0.3084E+00  0.9063E+01
      1.529  0.8419E-04  0.9063E+01
      1.557  0.1007E+00  0.9066E+01
      1.585  0.6923E+00  0.9085E+01
      1.613  0.4363E-01  0.9087E+01
      1.640  0.7656E+00  0.9108E+01
      1.668  0.7640E+00  0.9129E+01
      1.696  0.1932E-01  0.9129E+01
      1.723  0.1877E-02  0.9130E+01
      1.751  0.3588E+00  0.9139E+01
      1.779  0.6484E-01  0.9141E+01
      1.807  0.1067E+01  0.9171E+01
      1.834  0.9459E+00  0.9197E+01
      1.862  0.3446E+00  0.9207E+01
      1.890  0.9897E-01  0.9209E+01
      1.917  0.1111E+01  0.9240E+01
      1.945  0.8144E+00  0.9263E+01
      1.973  0.2990E-01  0.9264E+01
      2.001  0.3229E+00  0.9273E+01
      2.028  0.3638E+00  0.9283E+01
      2.056  0.4353E+00  0.9295E+01
      2.084  0.9022E+00  0.9320E+01
      2.111  0.1206E+01  0.9353E+01
      2.139  0.1448E+01  0.9393E+01
      2.167  0.9450E+00  0.9419E+01
      2.195  0.3393E+00  0.9429E+01
      2.222  0.2442E+00  0.9436E+01
      2.250  0.5734E+00  0.9451E+01
      2.278  0.1039E+01  0.9480E+01
      2.305  0.9106E+00  0.9506E+01
      2.333  0.1655E-01  0.9506E+01
      2.361  0.1366E-02  0.9506E+01
      2.389  0.3517E+00  0.9516E+01
      2.416  0.3324E+00  0.9525E+01
      2.444  0.1256E+01  0.9560E+01
      2.472  0.1558E+01  0.9603E+01
      2.499  0.5425E+00  0.9618E+01
      2.527  0.4837E+00  0.9631E+01
      2.555  0.1531E+01  0.9674E+01
      2.583  0.3758E+00  0.9684E+01
      2.610  0.7439E+00  0.9705E+01
      2.638  0.4628E+00  0.9718E+01
      2.666  0.1920E+01  0.9771E+01
      2.693  0.8044E+00  0.9793E+01
      2.721  0.7740E+00  0.9815E+01
      2.749  0.9658E+00  0.9841E+01
      2.777  0.6840E+00  0.9860E+01
      2.804  0.7009E+00  0.9880E+01
      2.832  0.1469E+01  0.9921E+01
      2.860  0.9890E+00  0.9948E+01
      2.887  0.5996E+00  0.9965E+01
      2.915  0.2616E+00  0.9972E+01
      2.943  0.1099E+01  0.1000E+02
      2.971  0.3710E+00  0.1001E+02
      2.998  0.1138E+01  0.1004E+02
      3.026  0.1282E+01  0.1008E+02
      3.054  0.6292E+00  0.1010E+02
      3.081  0.1667E+01  0.1014E+02
      3.109  0.1317E+00  0.1015E+02
      3.137  0.1056E-01  0.1015E+02
      3.165  0.7743E+00  0.1017E+02
      3.192  0.1055E+01  0.1020E+02
      3.220  0.1271E+01  0.1023E+02
      3.248  0.7481E+00  0.1025E+02
      3.275  0.5942E+00  0.1027E+02
      3.303  0.7130E+00  0.1029E+02
      3.331  0.7368E+00  0.1031E+02
      3.359  0.1314E+01  0.1035E+02
      3.386  0.2006E+01  0.1040E+02
      3.414  0.4949E+00  0.1042E+02
      3.442  0.1234E+01  0.1045E+02
      3.469  0.7474E+00  0.1047E+02
      3.497  0.1018E+01  0.1050E+02
      3.525  0.2214E+00  0.1051E+02
      3.553  0.4961E+00  0.1052E+02
      3.580  0.6132E+00  0.1054E+02
      3.608  0.8108E+00  0.1056E+02
      3.636  0.6467E+00  0.1058E+02
      3.663  0.1239E-01  0.1058E+02
      3.691  0.1445E+01  0.1062E+02
      3.719  0.9136E+00  0.1064E+02
      3.747  0.2185E+01  0.1070E+02
      3.774  0.9434E+00  0.1073E+02
      3.802  0.4573E+00  0.1074E+02
      3.830  0.7694E-02  0.1074E+02
      3.858  0.4524E+00  0.1075E+02
      3.885  0.2052E+01  0.1081E+02
      3.913  0.7952E+00  0.1083E+02
      3.941  0.8531E+00  0.1086E+02
      3.968  0.7199E+00  0.1088E+02
      3.996  0.4012E+00  0.1089E+02
      4.024  0.8591E+00  0.1091E+02
      4.052  0.1415E+01  0.1095E+02
      4.079  0.1114E-01  0.1095E+02
      4.107  0.7318E+00  0.1097E+02
      4.135  0.5284E+00  0.1099E+02
      4.162  0.2228E+01  0.1105E+02
      4.190  0.8613E+00  0.1107E+02
      4.218  0.1476E+01  0.1111E+02
      4.246  0.1415E+00  0.1112E+02
      4.273  0.1086E+01  0.1115E+02
      4.301  0.1073E+01  0.1118E+02
      4.329  0.5552E+00  0.1119E+02
      4.356  0.9986E+00  0.1122E+02
      4.384  0.3645E+00  0.1123E+02
      4.412  0.3808E+00  0.1124E+02
      4.440  0.6934E+00  0.1126E+02
      4.467  0.1250E+01  0.1129E+02
      4.495  0.3408E+00  0.1130E+02
      4.523  0.1616E+01  0.1135E+02
      4.550  0.2672E+00  0.1136E+02
      4.578  0.7577E+00  0.1138E+02
      4.606  0.1402E+01  0.1142E+02
      4.634  0.5920E+00  0.1143E+02
      4.661  0.2435E+01  0.1150E+02
      4.689  0.1112E+01  0.1153E+02
      4.717  0.7689E+00  0.1155E+02
      4.744  0.2099E+01  0.1161E+02
      4.772  0.3546E+00  0.1162E+02
      4.800  0.2711E+01  0.1169E+02
      4.828  0.1053E+01  0.1172E+02
      4.855  0.1103E+00  0.1173E+02
      4.883  0.1156E+01  0.1176E+02
      4.911  0.1592E+01  0.1180E+02
      4.938  0.1124E+01  0.1183E+02
      4.966  0.7213E+00  0.1185E+02
      4.994  0.8776E+00  0.1188E+02
      5.022  0.3546E-02  0.1188E+02
      5.049  0.3590E+00  0.1189E+02
      5.077  0.4904E+00  0.1190E+02
      5.105  0.1980E+01  0.1196E+02
      5.132  0.1989E+01  0.1201E+02
      5.160  0.1220E+01  0.1205E+02
      5.188  0.2065E+01  0.1210E+02
      5.216  0.2798E+01  0.1218E+02
      5.243  0.3057E+01  0.1227E+02
      5.271  0.8140E+00  0.1229E+02
      5.299  0.8313E+00  0.1231E+02
      5.326  0.2630E+01  0.1238E+02
      5.354  0.2135E+01  0.1244E+02
      5.382  0.1978E+01  0.1250E+02
      5.410  0.1039E+01  0.1253E+02
      5.437  0.1334E+01  0.1256E+02
      5.465  0.2337E+01  0.1263E+02
      5.493  0.8894E+00  0.1265E+02
      5.520  0.2430E+01  0.1272E+02
      5.548  0.1655E+01  0.1277E+02
      5.576  0.2863E+01  0.1285E+02
      5.604  0.2090E+01  0.1290E+02
      5.631  0.1419E+01  0.1294E+02
      5.659  0.9125E+00  0.1297E+02
      5.687  0.1436E+01  0.1301E+02
      5.714  0.2794E+01  0.1309E+02
      5.742  0.2074E+01  0.1314E+02
      5.770  0.2436E+01  0.1321E+02
      5.798  0.6521E+00  0.1323E+02
      5.825  0.2825E+01  0.1331E+02
      5.853  0.1789E+01  0.1336E+02
      5.881  0.5299E+00  0.1337E+02
      5.908  0.1018E+01  0.1340E+02
      5.936  0.1092E+01  0.1343E+02
      5.964  0.4516E+01  0.1355E+02
      5.992  0.1608E+01  0.1360E+02
      6.019  0.2975E+01  0.1368E+02
      6.047  0.2153E+01  0.1374E+02
      6.075  0.2035E+01  0.1380E+02
      6.102  0.2241E+01  0.1386E+02
      6.130  0.1542E+01  0.1390E+02
      6.158  0.2370E+01  0.1397E+02
      6.186  0.5353E+01  0.1412E+02
      6.213  0.1841E+01  0.1417E+02
      6.241  0.3576E+01  0.1427E+02
      6.269  0.2659E+01  0.1434E+02
      6.296  0.1560E+01  0.1438E+02
      6.324  0.1236E+01  0.1442E+02
      6.352  0.2009E+01  0.1447E+02
      6.380  0.1389E+01  0.1451E+02
      6.407  0.1192E+01  0.1455E+02
      6.435  0.1674E+01  0.1459E+02
      6.463  0.3591E+01  0.1469E+02
      6.490  0.1950E+01  0.1475E+02
      6.518  0.6090E+00  0.1476E+02
      6.546  0.1840E+01  0.1481E+02
      6.574  0.2313E+01  0.1488E+02
      6.601  0.2864E+01  0.1496E+02
      6.629  0.2292E+01  0.1502E+02
      6.657  0.1254E+01  0.1506E+02
      6.684  0.1508E+01  0.1510E+02
      6.712  0.2478E+01  0.1517E+02
      6.740  0.1971E+01  0.1522E+02
      6.768  0.1411E+01  0.1526E+02
      6.795  0.2513E+01  0.1533E+02
      6.823  0.1459E+01  0.1537E+02
      6.851  0.1673E+01  0.1542E+02
      6.878  0.2884E+01  0.1550E+02
      6.906  0.1859E+01  0.1555E+02
      6.934  0.2403E+00  0.1555E+02
      6.962  0.1184E+01  0.1559E+02
      6.989  0.2815E+01  0.1566E+02
      7.017  0.1660E+01  0.1571E+02
      7.045  0.2600E+01  0.1578E+02
      7.072  0.1677E+01  0.1583E+02
      7.100  0.8649E-01  0.1583E+02
      7.128  0.1588E+01  0.1588E+02
      7.156  0.1885E+01  0.1593E+02
      7.183  0.2192E+01  0.1599E+02
      7.211  0.1459E+01  0.1603E+02
      7.239  0.6831E+00  0.1605E+02
      7.266  0.9070E+00  0.1607E+02
      7.294  0.1925E+01  0.1613E+02
      7.322  0.2186E+01  0.1619E+02
      7.350  0.2252E+01  0.1625E+02
      7.377  0.7722E+00  0.1627E+02
      7.405  0.1736E+01  0.1632E+02
      7.433  0.1880E+01  0.1637E+02
      7.460  0.2445E+01  0.1644E+02
      7.488  0.2443E+01  0.1651E+02
      7.516  0.2123E+01  0.1657E+02
      7.544  0.1199E+01  0.1660E+02
      7.571  0.3941E+01  0.1671E+02
      7.599  0.1209E+01  0.1674E+02
      7.627  0.1797E+01  0.1679E+02
      7.654  0.5896E+00  0.1681E+02
      7.682  0.1876E+01  0.1686E+02
      7.710  0.1659E+01  0.1691E+02
      7.738  0.2114E+01  0.1696E+02
      7.765  0.7154E+00  0.1698E+02
      7.793  0.2661E+00  0.1699E+02
      7.821  0.2103E+01  0.1705E+02
      7.848  0.5309E+00  0.1706E+02
      7.876  0.1045E+01  0.1709E+02
      7.904  0.1594E+01  0.1714E+02
      7.932  0.1377E+01  0.1718E+02
      7.959  0.2204E+01  0.1724E+02
      7.987  0.1759E+01  0.1729E+02
      8.015  0.7217E+00  0.1731E+02
      8.042  0.1598E+01  0.1735E+02
      8.070  0.3673E+01  0.1745E+02
      8.098  0.1369E+01  0.1749E+02
      8.126  0.1659E+01  0.1754E+02
      8.153  0.6213E+00  0.1755E+02
      8.181  0.2641E+01  0.1763E+02
      8.209  0.2849E+01  0.1770E+02
      8.236  0.2948E+01  0.1779E+02
      8.264  0.1233E+01  0.1782E+02
      8.292  0.1224E+01  0.1785E+02
      8.320  0.1806E+01  0.1790E+02
      8.347  0.2054E+01  0.1796E+02
      8.375  0.3158E+01  0.1805E+02
      8.403  0.1412E+01  0.1809E+02
      8.430  0.3337E+01  0.1818E+02
      8.458  0.1326E+01  0.1822E+02
      8.486  0.1886E+01  0.1827E+02
      8.514  0.1574E+01  0.1831E+02
      8.541  0.4388E+01  0.1843E+02
      8.569  0.2140E+01  0.1849E+02
      8.597  0.2685E+01  0.1857E+02
      8.624  0.8387E+00  0.1859E+02
      8.652  0.2180E+01  0.1865E+02
      8.680  0.7660E+00  0.1867E+02
      8.708  0.1124E+01  0.1870E+02
      8.735  0.1420E+01  0.1874E+02
      8.763  0.1194E+01  0.1878E+02
      8.791  0.2527E+01  0.1885E+02
      8.818  0.1707E+01  0.1889E+02
      8.846  0.2633E+01  0.1897E+02
      8.874  0.1868E+01  0.1902E+02
      8.902  0.4120E+01  0.1913E+02
      8.929  0.1150E+01  0.1917E+02
      8.957  0.3332E+01  0.1926E+02
      8.985  0.1770E+01  0.1931E+02
      9.012  0.4963E+00  0.1932E+02
      9.040  0.4495E+01  0.1944E+02
      9.068  0.2484E+01  0.1951E+02
      9.096  0.2412E+01  0.1958E+02
      9.123  0.2747E+01  0.1966E+02
      9.151  0.8589E+00  0.1968E+02
      9.179  0.5318E+00  0.1970E+02
      9.206  0.2225E+01  0.1976E+02
      9.234  0.6237E+00  0.1977E+02
      9.262  0.1015E+01  0.1980E+02
      9.290  0.2069E+01  0.1986E+02
      9.317  0.1590E+01  0.1990E+02
      9.345  0.1200E+01  0.1994E+02
      9.373  0.1324E+01  0.1997E+02
      9.400  0.1164E+01  0.2001E+02
      9.428  0.1351E+01  0.2004E+02
      9.456  0.3524E+01  0.2014E+02
      9.484  0.3152E+01  0.2023E+02
      9.511  0.2469E+01  0.2030E+02
      9.539  0.1384E+01  0.2034E+02
      9.567  0.2797E+01  0.2041E+02
      9.594  0.1230E+01  0.2045E+02
      9.622  0.2768E+01  0.2052E+02
      9.650  0.7662E+00  0.2054E+02
      9.678  0.1177E+01  0.2058E+02
      9.705  0.3179E+01  0.2067E+02
      9.733  0.3184E+01  0.2075E+02
      9.761  0.2673E+01  0.2083E+02
      9.788  0.4394E+00  0.2084E+02
      9.816  0.6717E+00  0.2086E+02
      9.844  0.2893E+01  0.2094E+02
      9.872  0.2406E+01  0.2101E+02
      9.899  0.2053E+01  0.2106E+02
      9.927  0.2397E+01  0.2113E+02
      9.955  0.1664E+01  0.2117E+02
      9.982  0.2006E+01  0.2123E+02
     10.010  0.2225E+01  0.2129E+02
     10.038  0.4326E+00  0.2130E+02
     10.066  0.2017E+01  0.2136E+02
     10.093  0.2095E+01  0.2142E+02
     10.121  0.1819E+01  0.2147E+02
     10.149  0.3865E+01  0.2158E+02
     10.176  0.1937E+01  0.2163E+02
     10.204  0.1510E+01  0.2167E+02
     10.232  0.7120E+00  0.2169E+02
     10.260  0.3580E+01  0.2179E+02
     10.287  0.3034E+01  0.2187E+02
     10.315  0.6936E+00  0.2189E+02
     10.343  0.3576E+01  0.2199E+02
     10.370  0.1284E+01  0.2203E+02
     10.398  0.2117E+01  0.2209E+02
     10.426  0.2629E+01  0.2216E+02
     10.454  0.4145E+01  0.2227E+02
     10.481  0.2689E+01  0.2235E+02
     10.509  0.2272E+01  0.2241E+02
     10.537  0.1286E+01  0.2245E+02
     10.564  0.1258E+01  0.2248E+02
     10.592  0.3272E+01  0.2257E+02
     10.620  0.3203E+01  0.2266E+02
     10.648  0.2791E+01  0.2274E+02
     10.675  0.1765E+01  0.2279E+02
     10.703  0.2778E+01  0.2287E+02
     10.731  0.3032E+01  0.2295E+02
     10.758  0.3443E+01  0.2304E+02
     10.786  0.4413E+01  0.2317E+02
     10.814  0.6506E+00  0.2319E+02
     10.842  0.6724E+00  0.2320E+02
     10.869  0.2426E+01  0.2327E+02
     10.897  0.2741E+01  0.2335E+02
     10.925  0.9710E+00  0.2337E+02
     10.952  0.8217E+00  0.2340E+02
     10.980  0.2185E+01  0.2346E+02
     11.008  0.1298E+01  0.2349E+02
     11.036  0.1150E+01  0.2353E+02
     11.063  0.1644E+01  0.2357E+02
     11.091  0.3483E+01  0.2367E+02
     11.119  0.2009E+01  0.2372E+02
     11.146  0.3929E+01  0.2383E+02
     11.174  0.9235E+00  0.2386E+02
     11.202  0.3598E+01  0.2396E+02
     11.230  0.2964E+01  0.2404E+02
     11.257  0.1898E+01  0.2409E+02
     11.285  0.4127E+00  0.2410E+02
     11.313  0.3010E+01  0.2419E+02
     11.340  0.1063E+01  0.2422E+02
     11.368  0.7700E+00  0.2424E+02
     11.396  0.1503E+01  0.2428E+02
     11.424  0.2864E+01  0.2436E+02
     11.451  0.2085E+01  0.2442E+02
     11.479  0.3282E+01  0.2451E+02
     11.507  0.3011E+01  0.2459E+02
     11.534  0.2356E+01  0.2466E+02
     11.562  0.2618E+01  0.2473E+02
     11.590  0.3312E+01  0.2482E+02
     11.618  0.3465E+01  0.2492E+02
     11.645  0.2785E+01  0.2499E+02
     11.673  0.2436E+01  0.2506E+02
     11.701  0.2016E+01  0.2512E+02
     11.728  0.1303E+01  0.2515E+02
     11.756  0.2636E+01  0.2523E+02
     11.784  0.5367E+01  0.2537E+02
     11.812  0.3902E+01  0.2548E+02
     11.839  0.1544E+01  0.2553E+02
     11.867  0.3053E+01  0.2561E+02
     11.895  0.1750E+01  0.2566E+02
     11.922  0.7609E+00  0.2568E+02
     11.950  0.4222E+00  0.2569E+02
     11.978  0.2261E+01  0.2575E+02
     12.006  0.2507E+01  0.2582E+02
     12.033  0.1897E+01  0.2588E+02
     12.061  0.3405E+01  0.2597E+02
     12.089  0.2357E+01  0.2604E+02
     12.116  0.1311E+01  0.2607E+02
     12.144  0.2116E+01  0.2613E+02
     12.172  0.2422E+01  0.2620E+02
     12.200  0.7776E+00  0.2622E+02
     12.227  0.2433E+01  0.2629E+02
     12.255  0.2389E+01  0.2635E+02
     12.283  0.2119E+01  0.2641E+02
     12.310  0.1806E+01  0.2646E+02
     12.338  0.1047E+01  0.2649E+02
     12.366  0.1989E+01  0.2655E+02
     12.394  0.1013E+01  0.2657E+02
     12.421  0.1956E+01  0.2663E+02
     12.449  0.1144E+01  0.2666E+02
     12.477  0.1671E+01  0.2671E+02
     12.504  0.6357E+00  0.2672E+02
     12.532  0.1317E+01  0.2676E+02
     12.560  0.7593E+00  0.2678E+02
     12.588  0.1677E+01  0.2683E+02
     12.615  0.2223E+01  0.2689E+02
     12.643  0.2489E+01  0.2696E+02
     12.671  0.2747E+01  0.2703E+02
     12.699  0.2243E+01  0.2710E+02
     12.726  0.7296E+00  0.2712E+02
     12.754  0.1286E+01  0.2715E+02
     12.782  0.9139E+00  0.2718E+02
     12.809  0.1083E+01  0.2721E+02
     12.837  0.4750E+00  0.2722E+02
     12.865  0.1633E+01  0.2727E+02
     12.893  0.7124E+00  0.2729E+02
     12.920  0.1494E+01  0.2733E+02
     12.948  0.2266E+01  0.2739E+02
     12.976  0.2878E+01  0.2747E+02
     13.003  0.1112E+01  0.2750E+02
     13.031  0.1534E+01  0.2754E+02
     13.059  0.1558E+01  0.2759E+02
     13.087  0.2306E+01  0.2765E+02
     13.114  0.2716E+01  0.2773E+02
     13.142  0.1648E+01  0.2777E+02
     13.170  0.9723E+00  0.2780E+02
     13.197  0.1281E+01  0.2783E+02
     13.225  0.1977E+01  0.2789E+02
     13.253  0.4781E+00  0.2790E+02
     13.281  0.1534E+01  0.2794E+02
     13.308  0.1844E+01  0.2800E+02
     13.336  0.1952E+01  0.2805E+02
     13.364  0.1451E+01  0.2809E+02
     13.391  0.7858E+00  0.2811E+02
     13.419  0.8128E+00  0.2813E+02
     13.447  0.7770E+00  0.2816E+02
     13.475  0.1977E+01  0.2821E+02
     13.502  0.3530E+01  0.2831E+02
     13.530  0.2206E+01  0.2837E+02
     13.558  0.2530E+01  0.2844E+02
     13.585  0.3047E+01  0.2852E+02
     13.613  0.2211E+01  0.2859E+02
     13.641  0.4030E+01  0.2870E+02
     13.669  0.1006E+01  0.2873E+02
     13.696  0.1392E+01  0.2876E+02
     13.724  0.1457E+01  0.2880E+02
     13.752  0.2269E+01  0.2887E+02
     13.779  0.1101E+01  0.2890E+02
     13.807  0.9101E+00  0.2892E+02
     13.835  0.2379E+01  0.2899E+02
     13.863  0.3158E+01  0.2908E+02
     13.890  0.3259E+01  0.2917E+02
     13.918  0.3458E+01  0.2926E+02
     13.946  0.2771E+01  0.2934E+02
     13.973  0.3300E+01  0.2943E+02
     14.001  0.2867E+01  0.2951E+02
     14.029  0.8637E+00  0.2953E+02
     14.057  0.8805E+00  0.2956E+02
     14.084  0.1366E+01  0.2960E+02
     14.112  0.2085E+01  0.2965E+02
     14.140  0.1516E+01  0.2970E+02
     14.167  0.9523E+00  0.2972E+02
     14.195  0.4588E+01  0.2985E+02
     14.223  0.2254E+01  0.2991E+02
     14.251  0.4457E+01  0.3004E+02
     14.278  0.2400E+01  0.3010E+02
     14.306  0.3157E+01  0.3019E+02
     14.334  0.2998E+01  0.3027E+02
     14.361  0.2430E+01  0.3034E+02
     14.389  0.1325E+01  0.3038E+02
     14.417  0.1797E+01  0.3043E+02
     14.445  0.3907E+01  0.3054E+02
     14.472  0.5116E+01  0.3068E+02
     14.500  0.1386E+01  0.3072E+02
     14.528  0.2899E+01  0.3080E+02
     14.555  0.1988E+01  0.3085E+02
     14.583  0.2546E+01  0.3092E+02
     14.611  0.1499E+01  0.3096E+02
     14.639  0.3599E+01  0.3106E+02
     14.666  0.2858E+01  0.3114E+02
     14.694  0.2474E+01  0.3121E+02
     14.722  0.3388E+01  0.3130E+02
     14.749  0.2593E+01  0.3138E+02
     14.777  0.1395E+01  0.3141E+02
     14.805  0.3849E+01  0.3152E+02
     14.833  0.3251E+01  0.3161E+02
     14.860  0.3255E+01  0.3170E+02
     14.888  0.2103E+01  0.3176E+02
     14.916  0.3147E+01  0.3185E+02
     14.943  0.2919E+01  0.3193E+02
     14.971  0.2799E+01  0.3201E+02
     14.999  0.4012E+01  0.3212E+02
     15.027  0.1761E+01  0.3217E+02
     15.054  0.1993E+01  0.3222E+02
     15.082  0.2154E+01  0.3228E+02
     15.110  0.1326E+01  0.3232E+02
     15.137  0.3106E+00  0.3233E+02
     15.165  0.3232E+01  0.3242E+02
     15.193  0.4837E+01  0.3255E+02
     15.221  0.8450E+00  0.3257E+02
     15.248  0.4107E+00  0.3258E+02
     15.276  0.3012E+01  0.3267E+02
     15.304  0.1375E+01  0.3271E+02
     15.331  0.2302E+01  0.3277E+02
     15.359  0.2102E+01  0.3283E+02
     15.387  0.1094E+01  0.3286E+02
     15.415  0.2178E+01  0.3292E+02
     15.442  0.2025E+01  0.3297E+02
     15.470  0.3896E+01  0.3308E+02
     15.498  0.3433E+01  0.3318E+02
     15.525  0.1382E+01  0.3322E+02
     15.553  0.2049E+01  0.3327E+02
     15.581  0.1420E+01  0.3331E+02
     15.609  0.1660E+01  0.3336E+02
     15.636  0.2543E+01  0.3343E+02
     15.664  0.7669E+00  0.3345E+02
     15.692  0.1366E+01  0.3349E+02
     15.719  0.3769E+01  0.3359E+02
     15.747  0.2931E+01  0.3367E+02
     15.775  0.1589E+01  0.3372E+02
     15.803  0.1709E+01  0.3377E+02
     15.830  0.1537E+01  0.3381E+02
     15.858  0.1800E+01  0.3386E+02
     15.886  0.2270E+01  0.3392E+02
     15.913  0.4395E+00  0.3393E+02
     15.941  0.2550E+00  0.3394E+02
     15.969  0.1314E+01  0.3398E+02
     15.997  0.1300E+01  0.3401E+02
     16.024  0.2804E+01  0.3409E+02
     16.052  0.2645E+01  0.3416E+02
     16.080  0.3397E+01  0.3426E+02
     16.107  0.2487E+01  0.3433E+02
     16.135  0.3601E+01  0.3443E+02
     16.163  0.2146E+01  0.3449E+02
     16.191  0.2285E+01  0.3455E+02
     16.218  0.3259E+01  0.3464E+02
     16.246  0.2140E+01  0.3470E+02
     16.274  0.2301E+01  0.3476E+02
     16.301  0.1729E+01  0.3481E+02
     16.329  0.2108E+01  0.3487E+02
     16.357  0.1874E+01  0.3492E+02
     16.385  0.2157E+01  0.3498E+02
     16.412  0.2802E+01  0.3506E+02
     16.440  0.8725E+00  0.3508E+02
     16.468  0.1949E+01  0.3514E+02
     16.495  0.3383E+01  0.3523E+02
     16.523  0.2150E+01  0.3529E+02
     16.551  0.2424E+01  0.3536E+02
     16.579  0.4712E+01  0.3549E+02
     16.606  0.2458E+01  0.3556E+02
     16.634  0.2970E+01  0.3564E+02
     16.662  0.2648E+01  0.3571E+02
     16.689  0.1476E+01  0.3575E+02
     16.717  0.2717E+01  0.3583E+02
     16.745  0.1275E+01  0.3586E+02
     16.773  0.4205E+00  0.3587E+02
     16.800  0.1634E+01  0.3592E+02
     16.828  0.4224E+01  0.3604E+02
     16.856  0.2078E+01  0.3609E+02
     16.883  0.1560E+01  0.3614E+02
     16.911  0.2704E+01  0.3621E+02
     16.939  0.3023E+01  0.3630E+02
     16.967  0.1136E+01  0.3633E+02
     16.994  0.2206E+01  0.3639E+02
     17.022  0.4027E+01  0.3650E+02
     17.050  0.4144E+01  0.3662E+02
     17.077  0.1399E+01  0.3665E+02
     17.105  0.2960E+01  0.3674E+02
     17.133  0.2274E+01  0.3680E+02
     17.161  0.3843E+01  0.3691E+02
     17.188  0.2322E+01  0.3697E+02
     17.216  0.1055E+01  0.3700E+02
     17.244  0.3778E+01  0.3710E+02
     17.271  0.3191E+01  0.3719E+02
     17.299  0.4581E+01  0.3732E+02
     17.327  0.1894E+01  0.3737E+02
     17.355  0.9625E+00  0.3740E+02
     17.382  0.1144E+01  0.3743E+02
     17.410  0.1996E+01  0.3749E+02
     17.438  0.1068E+01  0.3752E+02
     17.465  0.2976E+01  0.3760E+02
     17.493  0.1496E+01  0.3764E+02
     17.521  0.1248E+01  0.3767E+02
     17.549  0.7817E+00  0.3770E+02
     17.576  0.2544E+01  0.3777E+02
     17.604  0.4216E+01  0.3788E+02
     17.632  0.3397E+01  0.3798E+02
     17.659  0.1508E+01  0.3802E+02
     17.687  0.2890E+01  0.3810E+02
     17.715  0.3587E+01  0.3820E+02
     17.743  0.1250E+01  0.3823E+02
     17.770  0.8413E+00  0.3826E+02
     17.798  0.2017E+01  0.3831E+02
     17.826  0.2814E+01  0.3839E+02
     17.853  0.3919E+01  0.3850E+02
     17.881  0.2092E+01  0.3856E+02
     17.909  0.3459E+01  0.3865E+02
     17.937  0.1894E+01  0.3870E+02
     17.964  0.2246E+01  0.3877E+02
     17.992  0.3013E+01  0.3885E+02
     18.020  0.1312E+01  0.3889E+02
     18.047  0.1706E+01  0.3893E+02
     18.075  0.1653E+01  0.3898E+02
     18.103  0.3077E+01  0.3907E+02
     18.131  0.2264E+01  0.3913E+02
     18.158  0.1974E+01  0.3918E+02
     18.186  0.4222E+00  0.3919E+02
     18.214  0.2657E+01  0.3927E+02
     18.241  0.2615E+01  0.3934E+02
     18.269  0.4586E+01  0.3947E+02
     18.297  0.1885E+01  0.3952E+02
     18.325  0.2478E+01  0.3959E+02
     18.352  0.1204E+01  0.3962E+02
     18.380  0.1661E+01  0.3967E+02
     18.408  0.1771E+01  0.3972E+02
     18.435  0.2139E+01  0.3978E+02
     18.463  0.2436E+01  0.3984E+02
     18.491  0.1621E+01  0.3989E+02
     18.519  0.2827E+01  0.3997E+02
     18.546  0.2389E+01  0.4003E+02
     18.574  0.1165E+01  0.4007E+02
     18.602  0.3160E+01  0.4015E+02
     18.629  0.1108E+01  0.4018E+02
     18.657  0.6351E+00  0.4020E+02
     18.685  0.2292E+01  0.4027E+02
     18.713  0.4295E+01  0.4038E+02
     18.740  0.4121E+01  0.4050E+02
     18.768  0.2452E+01  0.4057E+02
     18.796  0.3169E+01  0.4065E+02
     18.823  0.9593E+00  0.4068E+02
     18.851  0.2049E+01  0.4074E+02
     18.879  0.2743E+01  0.4081E+02
     18.907  0.2320E+01  0.4088E+02
     18.934  0.2132E+01  0.4094E+02
     18.962  0.5487E+01  0.4109E+02
     18.990  0.3577E+01  0.4119E+02
     19.017  0.7637E+00  0.4121E+02
     19.045  0.1564E+01  0.4125E+02
     19.073  0.4772E+00  0.4127E+02
     19.101  0.1847E+01  0.4132E+02
     19.128  0.3138E+01  0.4140E+02
     19.156  0.5591E+01  0.4156E+02
     19.184  0.5130E+01  0.4170E+02
     19.211  0.2512E+01  0.4177E+02
     19.239  0.1099E+01  0.4180E+02
     19.267  0.1627E+01  0.4185E+02
     19.295  0.2641E+01  0.4192E+02
     19.322  0.3051E+01  0.4200E+02
     19.350  0.1756E+01  0.4205E+02
     19.378  0.3981E+01  0.4216E+02
     19.405  0.2384E+01  0.4223E+02
     19.433  0.3601E+01  0.4233E+02
     19.461  0.1940E+01  0.4238E+02
     19.489  0.2026E+01  0.4244E+02
     19.516  0.1144E+01  0.4247E+02
     19.544  0.1898E+01  0.4252E+02
     19.572  0.3007E+01  0.4261E+02
     19.599  0.1742E+01  0.4265E+02
     19.627  0.1411E+01  0.4269E+02
     19.655  0.1923E+01  0.4275E+02
     19.683  0.3391E+01  0.4284E+02
     19.710  0.1653E+01  0.4289E+02
     19.738  0.5335E+01  0.4303E+02
     19.766  0.3977E+01  0.4315E+02
     19.793  0.2066E+01  0.4320E+02
     19.821  0.5661E+01  0.4336E+02
     19.849  0.1978E+01  0.4341E+02
     19.877  0.3698E+01  0.4352E+02
     19.904  0.1645E+01  0.4356E+02
     19.932  0.2998E+01  0.4365E+02
     19.960  0.2576E+01  0.4372E+02
     19.987  0.3370E+01  0.4381E+02
     20.015  0.3527E+01  0.4391E+02
     20.043  0.2000E+01  0.4396E+02
     20.071  0.2056E+01  0.4402E+02
     20.098  0.3035E+01  0.4410E+02
     20.126  0.2765E+01  0.4418E+02
     20.154  0.3777E+01  0.4429E+02
     20.181  0.3096E+01  0.4437E+02
     20.209  0.4751E+01  0.4450E+02
     20.237  0.7024E+01  0.4470E+02
     20.265  0.4392E+01  0.4482E+02
     20.292  0.2694E+01  0.4489E+02
     20.320  0.4175E+01  0.4501E+02
     20.348  0.1166E+01  0.4504E+02
     20.375  0.1181E+01  0.4507E+02
     20.403  0.1953E+01  0.4513E+02
     20.431  0.3037E+01  0.4521E+02
     20.459  0.2382E+01  0.4528E+02
     20.486  0.2974E+01  0.4536E+02
     20.514  0.1113E+01  0.4539E+02
     20.542  0.3290E+00  0.4540E+02
     20.569  0.2603E+01  0.4547E+02
     20.597  0.1563E+01  0.4552E+02
     20.625  0.2825E+01  0.4560E+02
     20.653  0.4582E+01  0.4572E+02
     20.680  0.1799E+01  0.4577E+02
     20.708  0.2856E+01  0.4585E+02
     20.736  0.1922E+01  0.4590E+02
     20.763  0.2242E+01  0.4597E+02
     20.791  0.2721E+01  0.4604E+02
     20.819  0.3685E+01  0.4614E+02
     20.847  0.1753E+01  0.4619E+02
     20.874  0.1902E+01  0.4625E+02
     20.902  0.9944E+00  0.4627E+02
     20.930  0.1735E+01  0.4632E+02
     20.957  0.2390E+01  0.4639E+02
     20.985  0.2762E+01  0.4646E+02
     21.013  0.2063E+01  0.4652E+02
     21.041  0.1028E+01  0.4655E+02
     21.068  0.3261E+01  0.4664E+02
     21.096  0.1021E+01  0.4667E+02
     21.124  0.2522E+01  0.4674E+02
     21.151  0.1090E+01  0.4677E+02
     21.179  0.2825E+01  0.4685E+02
     21.207  0.1890E+01  0.4690E+02
     21.235  0.2567E+01  0.4697E+02
     21.262  0.3154E+01  0.4706E+02
     21.290  0.2544E+01  0.4713E+02
     21.318  0.4550E+01  0.4725E+02
     21.345  0.3718E+01  0.4736E+02
     21.373  0.2424E+01  0.4742E+02
     21.401  0.4015E+01  0.4754E+02
     21.429  0.2300E+01  0.4760E+02
     21.456  0.2699E+01  0.4767E+02
     21.484  0.3556E+01  0.4777E+02
     21.512  0.5350E+01  0.4792E+02
     21.540  0.1979E+01  0.4798E+02
     21.567  0.3668E+01  0.4808E+02
     21.595  0.4370E+01  0.4820E+02
     21.623  0.2123E+01  0.4826E+02
     21.650  0.2430E+01  0.4832E+02
     21.678  0.3440E+01  0.4842E+02
     21.706  0.3831E+01  0.4853E+02
     21.734  0.2361E+01  0.4859E+02
     21.761  0.4582E+01  0.4872E+02
     21.789  0.2647E+01  0.4879E+02
     21.817  0.3116E+01  0.4888E+02
     21.844  0.3326E+01  0.4897E+02
     21.872  0.6684E+01  0.4916E+02
     21.900  0.3737E+01  0.4926E+02
     21.928  0.3037E+01  0.4934E+02
     21.955  0.1305E+01  0.4938E+02
     21.983  0.3089E+01  0.4947E+02
     22.011  0.3216E+01  0.4955E+02
     22.038  0.3598E+01  0.4965E+02
     22.066  0.1557E+01  0.4970E+02
     22.094  0.3258E+01  0.4979E+02
     22.122  0.3010E+01  0.4987E+02
     22.149  0.2469E+01  0.4994E+02
     22.177  0.1907E+01  0.4999E+02
     22.205  0.2248E+01  0.5005E+02
     22.232  0.3602E+01  0.5015E+02
     22.260  0.3383E+01  0.5025E+02
     22.288  0.4031E+01  0.5036E+02
     22.316  0.1908E+01  0.5041E+02
     22.343  0.1937E+01  0.5047E+02
     22.371  0.1007E+01  0.5049E+02
     22.399  0.3420E+01  0.5059E+02
     22.426  0.2179E+01  0.5065E+02
     22.454  0.3053E+01  0.5073E+02
     22.482  0.1884E+01  0.5079E+02
     22.510  0.1596E+01  0.5083E+02
     22.537  0.1867E+01  0.5088E+02
     22.565  0.1685E+01  0.5093E+02
     22.593  0.3156E+01  0.5102E+02
     22.620  0.4852E+01  0.5115E+02
     22.648  0.2457E+01  0.5122E+02
     22.676  0.2014E+01  0.5128E+02
     22.704  0.4795E+01  0.5141E+02
     22.731  0.2099E+01  0.5147E+02
     22.759  0.9236E+00  0.5149E+02
     22.787  0.3828E+01  0.5160E+02
     22.814  0.2467E+01  0.5167E+02
     22.842  0.6380E+01  0.5184E+02
     22.870  0.4560E+00  0.5186E+02
     22.898  0.2045E+01  0.5191E+02
     22.925  0.2650E+01  0.5199E+02
     22.953  0.3640E+01  0.5209E+02
     22.981  0.2792E+01  0.5216E+02
     23.008  0.1283E+01  0.5220E+02
     23.036  0.1649E+01  0.5225E+02
     23.064  0.3989E+01  0.5236E+02
     23.092  0.3881E+01  0.5246E+02
     23.119  0.1285E+01  0.5250E+02
     23.147  0.3353E+01  0.5259E+02
     23.175  0.2248E+01  0.5265E+02
     23.202  0.2799E+01  0.5273E+02
     23.230  0.3442E+01  0.5283E+02
     23.258  0.3690E+01  0.5293E+02
     23.286  0.2425E+01  0.5300E+02
     23.313  0.2691E+01  0.5307E+02
     23.341  0.2423E+01  0.5314E+02
     23.369  0.1745E+01  0.5319E+02
     23.396  0.2450E+01  0.5325E+02
     23.424  0.2499E+01  0.5332E+02
     23.452  0.2239E+01  0.5339E+02
     23.480  0.3013E+01  0.5347E+02
     23.507  0.3115E+01  0.5356E+02
     23.535  0.5056E+01  0.5370E+02
     23.563  0.2114E+01  0.5375E+02
     23.590  0.1463E+01  0.5380E+02
     23.618  0.1233E+01  0.5383E+02
     23.646  0.2331E+01  0.5389E+02
     23.674  0.3423E+01  0.5399E+02
     23.701  0.4331E+01  0.5411E+02
     23.729  0.3164E+01  0.5420E+02
     23.757  0.2430E+01  0.5426E+02
     23.784  0.3845E+01  0.5437E+02
     23.812  0.2968E+01  0.5445E+02
     23.840  0.2358E+01  0.5452E+02
     23.868  0.5032E+01  0.5466E+02
     23.895  0.4243E+01  0.5478E+02
     23.923  0.3525E+01  0.5487E+02
     23.951  0.5514E+01  0.5503E+02
     23.978  0.3638E+01  0.5513E+02
     24.006  0.2818E+01  0.5520E+02
     24.034  0.2340E+01  0.5527E+02
     24.062  0.2449E+01  0.5534E+02
     24.089  0.2748E+01  0.5541E+02
     24.117  0.2176E+01  0.5547E+02
     24.145  0.5473E+01  0.5563E+02
     24.172  0.2891E+01  0.5571E+02
     24.200  0.5280E+01  0.5585E+02
     24.228  0.1822E+01  0.5590E+02
     24.256  0.2285E+01  0.5597E+02
     24.283  0.3562E+01  0.5606E+02
     24.311  0.3312E+01  0.5616E+02
     24.339  0.3296E+01  0.5625E+02
     24.366  0.2194E+01  0.5631E+02
     24.394  0.3032E+01  0.5639E+02
     24.422  0.4496E+01  0.5652E+02
     24.450  0.2610E+01  0.5659E+02
     24.477  0.2750E+01  0.5667E+02
     24.505  0.4363E+01  0.5679E+02
     24.533  0.3122E+01  0.5687E+02
     24.560  0.4026E+01  0.5698E+02
     24.588  0.1928E+01  0.5704E+02
     24.616  0.3454E+00  0.5705E+02
     24.644  0.3424E+01  0.5714E+02
     24.671  0.2379E+01  0.5721E+02
     24.699  0.2229E+01  0.5727E+02
     24.727  0.1465E+01  0.5731E+02
     24.754  0.1764E+01  0.5736E+02
     24.782  0.3198E+01  0.5745E+02
     24.810  0.4096E+01  0.5756E+02
     24.838  0.3456E+01  0.5766E+02
     24.865  0.1118E+01  0.5769E+02
     24.893  0.2163E+01  0.5775E+02
     24.921  0.2676E+01  0.5782E+02
     24.948  0.2826E+01  0.5790E+02
     24.976  0.2936E+01  0.5798E+02
     25.004  0.4054E+01  0.5809E+02
     25.032  0.1692E+01  0.5814E+02
     25.059  0.2394E+01  0.5821E+02
     25.087  0.3488E+01  0.5830E+02
     25.115  0.1519E+01  0.5835E+02
     25.142  0.2876E+01  0.5843E+02
     25.170  0.3193E+01  0.5852E+02
     25.198  0.2967E+01  0.5860E+02
     25.226  0.1597E+01  0.5864E+02
     25.253  0.3269E+01  0.5873E+02
     25.281  0.4768E+01  0.5886E+02
     25.309  0.1966E+01  0.5892E+02
     25.336  0.2798E+01  0.5900E+02
     25.364  0.3291E+01  0.5909E+02
     25.392  0.3362E+01  0.5918E+02
     25.420  0.5482E+01  0.5933E+02
     25.447  0.1780E+01  0.5938E+02
     25.475  0.3145E+01  0.5947E+02
     25.503  0.3123E+01  0.5956E+02
     25.530  0.2070E+01  0.5961E+02
     25.558  0.1064E+01  0.5964E+02
     25.586  0.3737E+01  0.5975E+02
     25.614  0.3935E+01  0.5986E+02
     25.641  0.3135E+01  0.5994E+02
     25.669  0.2419E+01  0.6001E+02
     25.697  0.6201E+01  0.6018E+02
     25.724  0.2077E+01  0.6024E+02
     25.752  0.2326E+01  0.6030E+02
     25.780  0.3516E+01  0.6040E+02
     25.808  0.7663E+00  0.6042E+02
     25.835  0.1999E+01  0.6048E+02
     25.863  0.3170E+01  0.6056E+02
     25.891  0.2113E+01  0.6062E+02
     25.918  0.8774E+00  0.6065E+02
     25.946  0.3107E+01  0.6073E+02
     25.974  0.3429E+01  0.6083E+02
     26.002  0.1746E+01  0.6088E+02
     26.029  0.3376E+01  0.6097E+02
     26.057  0.2194E+01  0.6103E+02
     26.085  0.1776E+01  0.6108E+02
     26.112  0.1735E+01  0.6113E+02
     26.140  0.4367E+01  0.6125E+02
     26.168  0.1400E+01  0.6129E+02
     26.196  0.1709E+01  0.6134E+02
     26.223  0.3702E+01  0.6144E+02
     26.251  0.3345E+01  0.6153E+02
     26.279  0.2662E+01  0.6161E+02
     26.306  0.6957E+00  0.6162E+02
     26.334  0.1450E+01  0.6166E+02
     26.362  0.2986E+01  0.6175E+02
     26.390  0.3708E+01  0.6185E+02
     26.417  0.2598E+01  0.6192E+02
     26.445  0.7993E+00  0.6194E+02
     26.473  0.2687E+01  0.6202E+02
     26.500  0.4021E+01  0.6213E+02
     26.528  0.1336E+01  0.6217E+02
     26.556  0.1215E+01  0.6220E+02
     26.584  0.7641E+00  0.6222E+02
     26.611  0.1179E+01  0.6225E+02
     26.639  0.2478E+01  0.6232E+02
     26.667  0.3362E+01  0.6242E+02
     26.694  0.4039E+01  0.6253E+02
     26.722  0.9532E+00  0.6256E+02
     26.750  0.1416E+01  0.6259E+02
     26.778  0.2746E+01  0.6267E+02
     26.805  0.2697E+01  0.6275E+02
     26.833  0.4349E+01  0.6287E+02
     26.861  0.2109E+01  0.6292E+02
     26.888  0.2800E+01  0.6300E+02
     26.916  0.1295E+01  0.6304E+02
     26.944  0.3471E+01  0.6313E+02
     26.972  0.3606E+01  0.6323E+02
     26.999  0.2278E+01  0.6330E+02
     27.027  0.5173E+01  0.6344E+02
     27.055  0.3592E+01  0.6354E+02
     27.082  0.3757E+01  0.6364E+02
     27.110  0.3725E+01  0.6375E+02
     27.138  0.3079E+01  0.6383E+02
     27.166  0.4263E+01  0.6395E+02
     27.193  0.4122E+01  0.6407E+02
     27.221  0.4392E+01  0.6419E+02
     27.249  0.4187E+01  0.6430E+02
     27.276  0.9235E+00  0.6433E+02
     27.304  0.2979E+01  0.6441E+02
     27.332  0.3658E+01  0.6451E+02
     27.360  0.3360E+01  0.6461E+02
     27.387  0.2974E+01  0.6469E+02
     27.415  0.3479E+01  0.6478E+02
     27.443  0.3220E+01  0.6487E+02
     27.470  0.2775E+01  0.6495E+02
     27.498  0.3213E+01  0.6504E+02
     27.526  0.2817E+01  0.6512E+02
     27.554  0.4045E+01  0.6523E+02
     27.581  0.3590E+01  0.6533E+02
     27.609  0.1359E+01  0.6537E+02
     27.637  0.3155E+01  0.6545E+02
     27.664  0.3307E+01  0.6555E+02
     27.692  0.1830E+01  0.6560E+02
     27.720  0.1454E+01  0.6564E+02
     27.748  0.2899E+01  0.6572E+02
     27.775  0.2415E+01  0.6578E+02
     27.803  0.6209E+00  0.6580E+02
     27.831  0.2662E+01  0.6588E+02
     27.858  0.2586E+01  0.6595E+02
     27.886  0.1842E+01  0.6600E+02
     27.914  0.1006E+01  0.6603E+02
     27.942  0.1277E+01  0.6606E+02
     27.969  0.1071E+01  0.6609E+02
     27.997  0.2511E+01  0.6616E+02
     28.025  0.1650E+01  0.6621E+02
     28.052  0.1762E+01  0.6626E+02
     28.080  0.3686E+01  0.6636E+02
     28.108  0.3833E+01  0.6646E+02
     28.136  0.3098E+01  0.6655E+02
     28.163  0.3048E+01  0.6663E+02
     28.191  0.2675E+01  0.6671E+02
     28.219  0.3469E+01  0.6680E+02
     28.246  0.5418E+01  0.6695E+02
     28.274  0.3640E+01  0.6706E+02
     28.302  0.3507E+01  0.6715E+02
     28.330  0.2848E+01  0.6723E+02
     28.357  0.1552E+01  0.6727E+02
     28.385  0.1805E+01  0.6732E+02
     28.413  0.1072E+01  0.6735E+02
     28.440  0.5780E+01  0.6751E+02
     28.468  0.2102E+01  0.6757E+02
     28.496  0.2014E+01  0.6763E+02
     28.524  0.3130E+01  0.6771E+02
     28.551  0.1941E+01  0.6777E+02
     28.579  0.3589E+01  0.6787E+02
     28.607  0.7997E+00  0.6789E+02
     28.634  0.1429E+01  0.6793E+02
     28.662  0.2761E+01  0.6801E+02
     28.690  0.3120E+01  0.6809E+02
     28.718  0.3891E+01  0.6820E+02
     28.745  0.2414E+01  0.6827E+02
     28.773  0.3891E+01  0.6838E+02
     28.801  0.2568E+01  0.6845E+02
     28.828  0.2398E+01  0.6851E+02
     28.856  0.9426E+00  0.6854E+02
     28.884  0.3380E+01  0.6863E+02
     28.912  0.5052E+01  0.6877E+02
     28.939  0.2837E+01  0.6885E+02
     28.967  0.2340E+01  0.6892E+02
     28.995  0.9407E+00  0.6894E+02
     29.022  0.1717E+01  0.6899E+02
     29.050  0.3310E+01  0.6908E+02
     29.078  0.2963E+01  0.6916E+02
     29.106  0.2996E+01  0.6925E+02
     29.133  0.3060E+01  0.6933E+02
     29.161  0.2478E+01  0.6940E+02
     29.189  0.7189E+01  0.6960E+02
     29.216  0.2552E+01  0.6967E+02
     29.244  0.3222E+01  0.6976E+02
     29.272  0.1682E+01  0.6981E+02
     29.300  0.3943E+01  0.6992E+02
     29.327  0.1679E+01  0.6996E+02
     29.355  0.4228E+01  0.7008E+02
     29.383  0.4063E+01  0.7019E+02
     29.410  0.2153E+01  0.7025E+02
     29.438  0.2108E+01  0.7031E+02
     29.466  0.3076E+01  0.7040E+02
     29.494  0.2408E+01  0.7046E+02
     29.521  0.8405E+00  0.7049E+02
     29.549  0.4426E+01  0.7061E+02
     29.577  0.3764E+01  0.7071E+02
     29.604  0.3044E+01  0.7080E+02
     29.632  0.2931E+01  0.7088E+02
     29.660  0.3093E+01  0.7096E+02
     29.688  0.8279E+00  0.7099E+02
     29.715  0.2292E+01  0.7105E+02
     29.743  0.3808E+01  0.7116E+02
     29.771  0.2222E+01  0.7122E+02
     29.798  0.2085E+01  0.7128E+02
     29.826  0.3858E+01  0.7138E+02
     29.854  0.2411E+01  0.7145E+02
     29.882  0.2338E+01  0.7151E+02
     29.909  0.3557E+01  0.7161E+02
     29.937  0.2401E+01  0.7168E+02
     29.965  0.2223E+01  0.7174E+02
     29.992  0.2183E+01  0.7180E+02
     30.020  0.3000E+01  0.7188E+02
     30.048  0.2948E+01  0.7197E+02
     30.076  0.2752E+01  0.7204E+02
     30.103  0.3043E+01  0.7213E+02
     30.131  0.8551E+00  0.7215E+02
     30.159  0.2962E+01  0.7223E+02
     30.186  0.1460E+01  0.7227E+02
     30.214  0.4386E+01  0.7239E+02
     30.242  0.5309E+01  0.7254E+02
     30.270  0.1263E+01  0.7258E+02
     30.297  0.3752E+01  0.7268E+02
     30.325  0.4486E+01  0.7280E+02
     30.353  0.3922E+01  0.7291E+02
     30.381  0.2876E+01  0.7299E+02
     30.408  0.2336E+01  0.7306E+02
     30.436  0.1712E+01  0.7311E+02
     30.464  0.1649E+01  0.7315E+02
     30.491  0.1526E+01  0.7319E+02
     30.519  0.3844E+01  0.7330E+02
     30.547  0.3708E+01  0.7340E+02
     30.575  0.2438E+01  0.7347E+02
     30.602  0.3582E+01  0.7357E+02
     30.630  0.4301E+01  0.7369E+02
     30.658  0.2600E+01  0.7376E+02
     30.685  0.2681E+01  0.7383E+02
     30.713  0.3726E+01  0.7394E+02
     30.741  0.3242E+01  0.7403E+02
     30.769  0.2216E+01  0.7409E+02
     30.796  0.6769E+01  0.7428E+02
     30.824  0.4371E+01  0.7440E+02
     30.852  0.3129E+01  0.7448E+02
     30.879  0.3929E+01  0.7459E+02
     30.907  0.2743E+01  0.7467E+02
     30.935  0.2207E+01  0.7473E+02
     30.963  0.2478E+01  0.7480E+02
     30.990  0.1596E+01  0.7484E+02
     31.018  0.2379E+01  0.7491E+02
     31.046  0.4085E+01  0.7502E+02
     31.073  0.1608E+01  0.7507E+02
     31.101  0.2663E+01  0.7514E+02
     31.129  0.2567E+01  0.7521E+02
     31.157  0.2727E+01  0.7529E+02
     31.184  0.3457E+01  0.7538E+02
     31.212  0.2815E+01  0.7546E+02
     31.240  0.4223E+01  0.7558E+02
     31.267  0.2325E+01  0.7564E+02
     31.295  0.1666E+01  0.7569E+02
     31.323  0.2466E+01  0.7576E+02
     31.351  0.4652E+01  0.7589E+02
     31.378  0.3306E+01  0.7598E+02
     31.406  0.2522E+01  0.7605E+02
     31.434  0.4446E+01  0.7617E+02
     31.461  0.2258E+01  0.7623E+02
     31.489  0.2005E+01  0.7629E+02
     31.517  0.3040E+01  0.7637E+02
     31.545  0.3267E+01  0.7646E+02
     31.572  0.3256E+01  0.7655E+02
     31.600  0.2567E+01  0.7663E+02
     31.628  0.2404E+01  0.7669E+02
     31.655  0.1805E+01  0.7674E+02
     31.683  0.2489E+01  0.7681E+02
     31.711  0.3716E+01  0.7691E+02
     31.739  0.3784E+01  0.7702E+02
     31.766  0.1979E+01  0.7707E+02
     31.794  0.2927E+01  0.7716E+02
     31.822  0.1278E+01  0.7719E+02
     31.849  0.2661E+01  0.7726E+02
     31.877  0.3656E+01  0.7737E+02
     31.905  0.4201E+01  0.7748E+02
     31.933  0.1864E+01  0.7753E+02
     31.960  0.2041E+01  0.7759E+02
     31.988  0.3528E+01  0.7769E+02
     32.016  0.3484E+01  0.7778E+02
     32.043  0.2116E+01  0.7784E+02
     32.071  0.3000E+01  0.7793E+02
     32.099  0.3500E+01  0.7802E+02
     32.127  0.2510E+01  0.7809E+02
     32.154  0.3714E+01  0.7820E+02
     32.182  0.4697E+01  0.7833E+02
     32.210  0.2213E+01  0.7839E+02
     32.237  0.4269E+01  0.7851E+02
     32.265  0.3883E+01  0.7861E+02
     32.293  0.2595E+01  0.7869E+02
     32.321  0.3446E+01  0.7878E+02
     32.348  0.5865E+01  0.7894E+02
     32.376  0.4988E+01  0.7908E+02
     32.404  0.4090E+01  0.7920E+02
     32.431  0.2388E+01  0.7926E+02
     32.459  0.1334E+01  0.7930E+02
     32.487  0.2916E+01  0.7938E+02
     32.515  0.6433E+01  0.7956E+02
     32.542  0.7422E+01  0.7976E+02
     32.570  0.4473E+01  0.7989E+02
     32.598  0.5607E+01  0.8004E+02
     32.625  0.2688E+01  0.8012E+02
     32.653  0.4319E+01  0.8024E+02
     32.681  0.2963E+01  0.8032E+02
     32.709  0.1532E+01  0.8036E+02
     32.736  0.1811E+01  0.8041E+02
     32.764  0.2725E+01  0.8049E+02
     32.792  0.4497E+01  0.8061E+02
     32.819  0.3597E+01  0.8071E+02
     32.847  0.4446E+01  0.8083E+02
     32.875  0.7335E+01  0.8104E+02
     32.903  0.3023E+01  0.8112E+02
     32.930  0.2650E+01  0.8120E+02
     32.958  0.1786E+01  0.8124E+02
     32.986  0.3660E+01  0.8135E+02
     33.013  0.3031E+01  0.8143E+02
     33.041  0.3423E+01  0.8152E+02
     33.069  0.1269E+01  0.8156E+02
     33.097  0.3345E+01  0.8165E+02
     33.124  0.2408E+01  0.8172E+02
     33.152  0.3263E+01  0.8181E+02
     33.180  0.6755E+00  0.8183E+02
     33.207  0.1063E+01  0.8186E+02
     33.235  0.1560E+01  0.8190E+02
     33.263  0.2392E+01  0.8197E+02
     33.291  0.7145E+01  0.8217E+02
     33.318  0.3135E+01  0.8225E+02
     33.346  0.1016E+01  0.8228E+02
     33.374  0.2200E+01  0.8234E+02
     33.401  0.1620E+01  0.8239E+02
     33.429  0.3127E+01  0.8247E+02
     33.457  0.1337E+01  0.8251E+02
     33.485  0.2416E+01  0.8258E+02
     33.512  0.3982E+01  0.8269E+02
     33.540  0.1993E+01  0.8274E+02
     33.568  0.2576E+01  0.8281E+02
     33.595  0.1006E+01  0.8284E+02
     33.623  0.2746E+01  0.8292E+02
     33.651  0.2633E+01  0.8299E+02
     33.679  0.4200E+01  0.8311E+02
     33.706  0.6567E+01  0.8329E+02
     33.734  0.2428E+01  0.8336E+02
     33.762  0.3845E+01  0.8346E+02
     33.789  0.3393E+01  0.8356E+02
     33.817  0.3089E+01  0.8364E+02
     33.845  0.2479E+01  0.8371E+02
     33.873  0.2168E+01  0.8377E+02
     33.900  0.2056E+01  0.8383E+02
     33.928  0.3000E+01  0.8391E+02
     33.956  0.2999E+01  0.8400E+02
     33.983  0.3012E+01  0.8408E+02
     34.011  0.1894E+01  0.8413E+02
     34.039  0.9850E+00  0.8416E+02
     34.067  0.4166E+01  0.8427E+02
     34.094  0.3305E+01  0.8437E+02
     34.122  0.2837E+01  0.8444E+02
     34.150  0.2237E+01  0.8451E+02
     34.177  0.1395E+01  0.8454E+02
     34.205  0.2103E+01  0.8460E+02
     34.233  0.3798E+01  0.8471E+02
     34.261  0.5528E+01  0.8486E+02
     34.288  0.2155E+01  0.8492E+02
     34.316  0.1677E+01  0.8497E+02
     34.344  0.1511E+01  0.8501E+02
     34.371  0.2040E+01  0.8507E+02
     34.399  0.2804E+01  0.8514E+02
     34.427  0.2030E+01  0.8520E+02
     34.455  0.2795E+01  0.8528E+02
     34.482  0.3805E+01  0.8538E+02
     34.510  0.9115E+00  0.8541E+02
     34.538  0.3145E+01  0.8550E+02
     34.565  0.5087E+01  0.8564E+02
     34.593  0.2266E+01  0.8570E+02
     34.621  0.3265E+01  0.8579E+02
     34.649  0.2216E+01  0.8585E+02
     34.676  0.3595E+01  0.8595E+02
     34.704  0.1972E+01  0.8601E+02
     34.732  0.2462E+01  0.8607E+02
     34.759  0.3857E+01  0.8618E+02
     34.787  0.1770E+01  0.8623E+02
     34.815  0.5246E+01  0.8638E+02
     34.843  0.5163E+01  0.8652E+02
     34.870  0.2358E+01  0.8658E+02
     34.898  0.3716E+01  0.8669E+02
     34.926  0.1846E+01  0.8674E+02
     34.953  0.5187E+01  0.8688E+02
     34.981  0.1177E+01  0.8691E+02
     35.009  0.4125E+01  0.8703E+02
     35.037  0.5554E+01  0.8718E+02
     35.064  0.2944E+01  0.8726E+02
     35.092  0.2312E+01  0.8733E+02
     35.120  0.4081E+01  0.8744E+02
     35.147  0.6567E+01  0.8762E+02
     35.175  0.2648E+01  0.8770E+02
     35.203  0.2784E+01  0.8777E+02
     35.231  0.4590E+01  0.8790E+02
     35.258  0.2897E+01  0.8798E+02
     35.286  0.3374E+01  0.8807E+02
     35.314  0.2247E+01  0.8814E+02
     35.341  0.2754E+01  0.8821E+02
     35.369  0.5021E+01  0.8835E+02
     35.397  0.4397E+01  0.8847E+02
     35.425  0.5010E+01  0.8861E+02
     35.452  0.4684E+01  0.8874E+02
     35.480  0.3205E+01  0.8883E+02
     35.508  0.1890E+01  0.8888E+02
     35.535  0.2757E+01  0.8896E+02
     35.563  0.4029E+01  0.8907E+02
     35.591  0.3997E+01  0.8918E+02
     35.619  0.2141E+01  0.8924E+02
     35.646  0.3180E+01  0.8933E+02
     35.674  0.4643E+01  0.8946E+02
     35.702  0.1746E+01  0.8951E+02
     35.729  0.1297E+01  0.8954E+02
     35.757  0.5457E+01  0.8969E+02
     35.785  0.2499E+01  0.8976E+02
     35.813  0.3427E+01  0.8986E+02
     35.840  0.2886E+01  0.8994E+02
     35.868  0.3594E+01  0.9004E+02
     35.896  0.4253E+01  0.9016E+02
     35.923  0.3120E+01  0.9024E+02
     35.951  0.3777E+01  0.9035E+02
     35.979  0.2658E+01  0.9042E+02
     36.007  0.5796E+01  0.9058E+02
     36.034  0.3372E+01  0.9068E+02
     36.062  0.4215E+01  0.9079E+02
     36.090  0.4015E+01  0.9090E+02
     36.117  0.5661E+01  0.9106E+02
     36.145  0.2959E+01  0.9114E+02
     36.173  0.2835E+01  0.9122E+02
     36.201  0.6452E+01  0.9140E+02
     36.228  0.4360E+01  0.9152E+02
     36.256  0.2610E+01  0.9159E+02
     36.284  0.3431E+01  0.9169E+02
     36.311  0.3235E+01  0.9178E+02
     36.339  0.2765E+01  0.9185E+02
     36.367  0.3198E+01  0.9194E+02
     36.395  0.3838E+01  0.9205E+02
     36.422  0.3627E+01  0.9215E+02
     36.450  0.2446E+01  0.9222E+02
     36.478  0.2657E+01  0.9229E+02
     36.505  0.1588E+01  0.9234E+02
     36.533  0.8571E-01  0.9234E+02
     36.561  0.2051E+01  0.9239E+02
     36.589  0.2590E+01  0.9247E+02
     36.616  0.3170E+01  0.9255E+02
     36.644  0.1780E+01  0.9260E+02
     36.672  0.2772E+01  0.9268E+02
     36.699  0.5057E+01  0.9282E+02
     36.727  0.4404E+01  0.9294E+02
     36.755  0.4139E+01  0.9306E+02
     36.783  0.4131E+01  0.9317E+02
     36.810  0.2466E+01  0.9324E+02
     36.838  0.3535E+01  0.9334E+02
     36.866  0.2186E+01  0.9340E+02
     36.893  0.4981E+01  0.9354E+02
     36.921  0.5336E+01  0.9368E+02
     36.949  0.3185E+01  0.9377E+02
     36.977  0.2110E+01  0.9383E+02
     37.004  0.2793E+01  0.9391E+02
     37.032  0.2210E+01  0.9397E+02
     37.060  0.8832E+00  0.9399E+02
     37.087  0.2578E+01  0.9407E+02
     37.115  0.5062E+01  0.9421E+02
     37.143  0.2766E+01  0.9428E+02
     37.171  0.4309E+01  0.9440E+02
     37.198  0.4872E+01  0.9454E+02
     37.226  0.2295E+01  0.9460E+02
     37.254  0.3180E+01  0.9469E+02
     37.281  0.4138E+01  0.9480E+02
     37.309  0.3030E+01  0.9489E+02
     37.337  0.1862E+01  0.9494E+02
     37.365  0.3057E+01  0.9502E+02
     37.392  0.3804E+01  0.9513E+02
     37.420  0.4321E+01  0.9525E+02
     37.448  0.2553E+01  0.9532E+02
     37.475  0.2963E+01  0.9540E+02
     37.503  0.2813E+01  0.9548E+02
     37.531  0.2637E+01  0.9555E+02
     37.559  0.4454E+01  0.9568E+02
     37.586  0.2210E+01  0.9574E+02
     37.614  0.3053E+01  0.9582E+02
     37.642  0.1825E+01  0.9587E+02
     37.669  0.4998E+01  0.9601E+02
     37.697  0.2949E+01  0.9609E+02
     37.725  0.3770E+01  0.9620E+02
     37.753  0.4436E+01  0.9632E+02
     37.780  0.3550E+01  0.9642E+02
     37.808  0.2221E+01  0.9648E+02
     37.836  0.1780E+01  0.9653E+02
     37.863  0.3643E+01  0.9663E+02
     37.891  0.4227E+01  0.9675E+02
     37.919  0.2895E+01  0.9683E+02
     37.947  0.1278E+01  0.9686E+02
     37.974  0.2715E+01  0.9694E+02
     38.002  0.3022E+01  0.9702E+02
     38.030  0.2529E+01  0.9709E+02
     38.057  0.3872E+01  0.9720E+02
     38.085  0.3380E+01  0.9729E+02
     38.113  0.3540E+01  0.9739E+02
     38.141  0.7036E+01  0.9759E+02
     38.168  0.3466E+01  0.9768E+02
     38.196  0.2436E+01  0.9775E+02
     38.224  0.1897E+01  0.9780E+02
     38.251  0.2181E+01  0.9786E+02
     38.279  0.5061E+01  0.9800E+02
     38.307  0.4373E+01  0.9812E+02
     38.335  0.1952E+01  0.9818E+02
     38.362  0.2191E+01  0.9824E+02
     38.390  0.5012E+01  0.9838E+02
     38.418  0.3572E+01  0.9848E+02
     38.445  0.3134E+01  0.9856E+02
     38.473  0.2746E+01  0.9864E+02
     38.501  0.4139E+01  0.9876E+02
     38.529  0.1883E+01  0.9881E+02
     38.556  0.2312E+01  0.9887E+02
     38.584  0.2590E+01  0.9894E+02
     38.612  0.2609E+01  0.9902E+02
     38.639  0.2596E+01  0.9909E+02
     38.667  0.2581E+01  0.9916E+02
     38.695  0.3723E+01  0.9926E+02
     38.723  0.1901E+01  0.9931E+02
     38.750  0.2439E+01  0.9938E+02
     38.778  0.4776E+01  0.9951E+02
     38.806  0.2233E+01  0.9958E+02
     38.833  0.3698E+01  0.9968E+02
     38.861  0.3230E+01  0.9977E+02
     38.889  0.4606E+01  0.9990E+02
     38.917  0.4041E+01  0.1000E+03
     38.944  0.2987E+01  0.1001E+03
     38.972  0.3354E+01  0.1002E+03
     39.000  0.3969E+01  0.1003E+03
     39.027  0.2490E+01  0.1004E+03
     39.055  0.3688E+01  0.1005E+03
     39.083  0.4854E+01  0.1006E+03
     39.111  0.4392E+01  0.1007E+03
     39.138  0.3370E+01  0.1008E+03
     39.166  0.3327E+01  0.1009E+03
     39.194  0.3632E+01  0.1010E+03
     39.221  0.4086E+01  0.1011E+03
     39.249  0.4693E+01  0.1013E+03
     39.277  0.1704E+01  0.1013E+03
     39.305  0.7132E+00  0.1013E+03
     39.332  0.1480E+01  0.1014E+03
     39.360  0.3406E+01  0.1015E+03
     39.388  0.3120E+01  0.1015E+03
     39.416  0.2836E+01  0.1016E+03
     39.443  0.2961E+01  0.1017E+03
     39.471  0.4552E+01  0.1018E+03
     39.499  0.4454E+01  0.1020E+03
     39.526  0.3654E+01  0.1021E+03
     39.554  0.3890E+01  0.1022E+03
     39.582  0.3445E+01  0.1023E+03
     39.610  0.3755E+01  0.1024E+03
     39.637  0.3805E+01  0.1025E+03
     39.665  0.5713E+01  0.1026E+03
     39.693  0.4420E+01  0.1027E+03
     39.720  0.3438E+01  0.1028E+03
     39.748  0.3029E+01  0.1029E+03
     39.776  0.3798E+01  0.1030E+03
     39.804  0.3868E+01  0.1031E+03
     39.831  0.1717E+01  0.1032E+03
     39.859  0.3143E+01  0.1033E+03
     39.887  0.4851E+01  0.1034E+03
     39.914  0.4001E+01  0.1035E+03
     39.942  0.2369E+01  0.1036E+03
     39.970  0.4787E+01  0.1037E+03
     39.998  0.1650E+01  0.1038E+03
     40.025  0.3863E+01  0.1039E+03
     40.053  0.4661E+01  0.1040E+03
     40.081  0.5699E+01  0.1042E+03
     40.108  0.3383E+01  0.1042E+03
     40.136  0.2874E+01  0.1043E+03
     40.164  0.3091E+01  0.1044E+03
     40.192  0.1741E+01  0.1045E+03
     40.219  0.1742E+01  0.1045E+03
     40.247  0.3322E+01  0.1046E+03
     40.275  0.4392E+01  0.1047E+03
     40.302  0.6530E+01  0.1049E+03
     40.330  0.5090E+01  0.1050E+03
     40.358  0.4209E+01  0.1052E+03
     40.386  0.3168E+01  0.1053E+03
     40.413  0.4694E+01  0.1054E+03
     40.441  0.5844E+01  0.1055E+03
     40.469  0.4868E+01  0.1057E+03
     40.496  0.2688E+01  0.1058E+03
     40.524  0.4526E+01  0.1059E+03
     40.552  0.3020E+01  0.1060E+03
     40.580  0.3684E+01  0.1061E+03
     40.607  0.4522E+01  0.1062E+03
     40.635  0.2983E+01  0.1063E+03
     40.663  0.3389E+01  0.1064E+03
     40.690  0.4753E+01  0.1065E+03
     40.718  0.4574E+01  0.1066E+03
     40.746  0.4943E+01  0.1068E+03
     40.774  0.5411E+01  0.1069E+03
     40.801  0.4070E+01  0.1070E+03
     40.829  0.2574E+01  0.1071E+03
     40.857  0.4187E+01  0.1072E+03
     40.884  0.4577E+01  0.1073E+03
     40.912  0.3920E+01  0.1074E+03
     40.940  0.3403E+01  0.1075E+03
     40.968  0.4360E+01  0.1077E+03
     40.995  0.6012E+01  0.1078E+03
     41.023  0.6303E+01  0.1080E+03
     41.051  0.1136E+01  0.1080E+03
     41.078  0.4256E+01  0.1082E+03
     41.106  0.3611E+01  0.1083E+03
     41.134  0.3135E+01  0.1083E+03
     41.162  0.2278E+01  0.1084E+03
     41.189  0.4144E+01  0.1085E+03
     41.217  0.3459E+01  0.1086E+03
     41.245  0.2811E+01  0.1087E+03
     41.272  0.1668E+01  0.1087E+03
     41.300  0.4064E+01  0.1089E+03
     41.328  0.3624E+01  0.1090E+03
     41.356  0.7048E+01  0.1091E+03
     41.383  0.5856E+01  0.1093E+03
     41.411  0.3407E+01  0.1094E+03
     41.439  0.5134E+01  0.1095E+03
     41.466  0.3527E+01  0.1096E+03
     41.494  0.2823E+01  0.1097E+03
     41.522  0.5856E+01  0.1099E+03
     41.550  0.4743E+01  0.1100E+03
     41.577  0.4523E+01  0.1101E+03
     41.605  0.4873E+01  0.1103E+03
     41.633  0.6026E+01  0.1104E+03
     41.660  0.5181E+01  0.1106E+03
     41.688  0.3445E+01  0.1107E+03
     41.716  0.2811E+01  0.1108E+03
     41.744  0.3272E+01  0.1108E+03
     41.771  0.3901E+01  0.1110E+03
     41.799  0.2285E+01  0.1110E+03
     41.827  0.2332E+01  0.1111E+03
     41.854  0.4015E+01  0.1112E+03
     41.882  0.4539E+01  0.1113E+03
     41.910  0.3481E+01  0.1114E+03
     41.938  0.2469E+01  0.1115E+03
     41.965  0.2069E+01  0.1115E+03
     41.993  0.4935E+01  0.1117E+03
     42.021  0.1907E+01  0.1117E+03
     42.048  0.3694E+01  0.1118E+03
     42.076  0.1114E+01  0.1119E+03
     42.104  0.8679E+00  0.1119E+03
     42.132  0.3022E+01  0.1120E+03
     42.159  0.3263E+01  0.1121E+03
     42.187  0.4006E+01  0.1122E+03
     42.215  0.4426E+01  0.1123E+03
     42.242  0.2390E+01  0.1124E+03
     42.270  0.4501E+01  0.1125E+03
     42.298  0.5961E+01  0.1127E+03
     42.326  0.4121E+01  0.1128E+03
     42.353  0.3115E+01  0.1129E+03
     42.381  0.4274E+01  0.1130E+03
     42.409  0.2870E+01  0.1131E+03
     42.436  0.4581E+01  0.1132E+03
     42.464  0.3491E+01  0.1133E+03
     42.492  0.6940E+01  0.1135E+03
     42.520  0.6990E+01  0.1137E+03
     42.547  0.2502E+01  0.1137E+03
     42.575  0.1859E+01  0.1138E+03
     42.603  0.2768E+01  0.1139E+03
     42.630  0.3379E+01  0.1140E+03
     42.658  0.3068E+01  0.1140E+03
     42.686  0.4153E+01  0.1142E+03
     42.714  0.4274E+01  0.1143E+03
     42.741  0.5206E+01  0.1144E+03
     42.769  0.5217E+01  0.1146E+03
     42.797  0.4172E+01  0.1147E+03
     42.824  0.4135E+01  0.1148E+03
     42.852  0.1164E+01  0.1148E+03
     42.880  0.2497E+01  0.1149E+03
     42.908  0.4196E+01  0.1150E+03
     42.935  0.3222E+01  0.1151E+03
     42.963  0.1974E+01  0.1152E+03
     42.991  0.3177E+01  0.1152E+03
     43.018  0.4980E+01  0.1154E+03
     43.046  0.3181E+01  0.1155E+03
     43.074  0.3952E+01  0.1156E+03
     43.102  0.5617E+01  0.1157E+03
     43.129  0.2027E+01  0.1158E+03
     43.157  0.1744E+01  0.1158E+03
     43.185  0.3300E+01  0.1159E+03
     43.212  0.4868E+01  0.1161E+03
     43.240  0.2333E+01  0.1161E+03
     43.268  0.4744E+01  0.1163E+03
     43.296  0.2299E+01  0.1163E+03
     43.323  0.4127E+01  0.1164E+03
     43.351  0.5639E+01  0.1166E+03
     43.379  0.2883E+01  0.1167E+03
     43.406  0.2230E+01  0.1167E+03
     43.434  0.4366E+01  0.1169E+03
     43.462  0.3690E+01  0.1170E+03
     43.490  0.3167E+01  0.1170E+03
     43.517  0.3150E+01  0.1171E+03
     43.545  0.4083E+01  0.1172E+03
     43.573  0.3441E+01  0.1173E+03
     43.600  0.5156E+01  0.1175E+03
     43.628  0.4643E+01  0.1176E+03
     43.656  0.2737E+01  0.1177E+03
     43.684  0.1161E+01  0.1177E+03
     43.711  0.3441E+01  0.1178E+03
     43.739  0.7301E+01  0.1180E+03
     43.767  0.2207E+01  0.1181E+03
     43.794  0.6248E+01  0.1183E+03
     43.822  0.3561E+01  0.1184E+03
     43.850  0.5689E+01  0.1185E+03
     43.878  0.6271E+01  0.1187E+03
     43.905  0.2837E+01  0.1188E+03
     43.933  0.1885E+01  0.1188E+03
     43.961  0.2516E+01  0.1189E+03
     43.988  0.4039E+01  0.1190E+03
     44.016  0.5678E+01  0.1192E+03
     44.044  0.5050E+01  0.1193E+03
     44.072  0.2761E+01  0.1194E+03
     44.099  0.2747E+01  0.1194E+03
     44.127  0.5094E+01  0.1196E+03
     44.155  0.4873E+01  0.1197E+03
     44.182  0.5330E+01  0.1199E+03
     44.210  0.3312E+01  0.1200E+03
     44.238  0.5992E+01  0.1201E+03
     44.266  0.5840E+01  0.1203E+03
     44.293  0.2503E+01  0.1204E+03
     44.321  0.3317E+01  0.1205E+03
     44.349  0.2522E+01  0.1205E+03
     44.376  0.3234E+01  0.1206E+03
     44.404  0.5376E+01  0.1208E+03
     44.432  0.4666E+01  0.1209E+03
     44.460  0.4344E+01  0.1210E+03
     44.487  0.2929E+01  0.1211E+03
     44.515  0.4477E+01  0.1212E+03
     44.543  0.1797E+01  0.1213E+03
     44.570  0.4892E+01  0.1214E+03
     44.598  0.2290E+01  0.1215E+03
     44.626  0.2246E+01  0.1215E+03
     44.654  0.4968E+01  0.1217E+03
     44.681  0.6966E+01  0.1219E+03
     44.709  0.5848E+01  0.1220E+03
     44.737  0.4327E+01  0.1221E+03
     44.764  0.2936E+01  0.1222E+03
     44.792  0.9362E+00  0.1222E+03
     44.820  0.3789E+01  0.1224E+03
     44.848  0.3328E+01  0.1224E+03
     44.875  0.4234E+01  0.1226E+03
     44.903  0.3381E+01  0.1227E+03
     44.931  0.2275E+01  0.1227E+03
     44.958  0.3686E+01  0.1228E+03
     44.986  0.1468E+01  0.1229E+03
     45.014  0.1873E+01  0.1229E+03
     45.042  0.3933E+01  0.1230E+03
     45.069  0.4680E+01  0.1232E+03
     45.097  0.4118E+01  0.1233E+03
     45.125  0.7150E+01  0.1235E+03
     45.152  0.3105E+01  0.1236E+03
     45.180  0.3021E+01  0.1236E+03
     45.208  0.2189E+01  0.1237E+03
     45.236  0.3386E+01  0.1238E+03
     45.263  0.2968E+01  0.1239E+03
     45.291  0.3191E+01  0.1240E+03
     45.319  0.3604E+01  0.1241E+03
     45.346  0.9289E+00  0.1241E+03
     45.374  0.3647E+01  0.1242E+03
     45.402  0.2420E+01  0.1243E+03
     45.430  0.1888E+01  0.1243E+03
     45.457  0.5309E+01  0.1245E+03
     45.485  0.3823E+01  0.1246E+03
     45.513  0.2217E+01  0.1246E+03
     45.540  0.2397E+01  0.1247E+03
     45.568  0.4717E+01  0.1248E+03
     45.596  0.3121E+01  0.1249E+03
     45.624  0.2319E+01  0.1250E+03
     45.651  0.2955E+01  0.1251E+03
     45.679  0.4776E+01  0.1252E+03
     45.707  0.4198E+01  0.1253E+03
     45.734  0.3209E+01  0.1254E+03
     45.762  0.5173E+01  0.1255E+03
     45.790  0.4486E+01  0.1257E+03
     45.818  0.2677E+01  0.1257E+03
     45.845  0.5311E+01  0.1259E+03
     45.873  0.4644E+01  0.1260E+03
     45.901  0.2295E+01  0.1261E+03
     45.928  0.5498E+01  0.1262E+03
     45.956  0.5045E+01  0.1264E+03
     45.984  0.4578E+01  0.1265E+03
     46.012  0.4712E+01  0.1266E+03
     46.039  0.2662E+01  0.1267E+03
     46.067  0.3609E+01  0.1268E+03
     46.095  0.4524E+01  0.1269E+03
     46.122  0.1977E+01  0.1270E+03
     46.150  0.5198E+01  0.1271E+03
     46.178  0.3175E+01  0.1272E+03
     46.206  0.3006E+01  0.1273E+03
     46.233  0.2895E+01  0.1274E+03
     46.261  0.7460E+01  0.1276E+03
     46.289  0.4970E+01  0.1277E+03
     46.316  0.2885E+01  0.1278E+03
     46.344  0.2427E+01  0.1279E+03
     46.372  0.3432E+01  0.1280E+03
     46.400  0.2649E+01  0.1280E+03
     46.427  0.2678E+01  0.1281E+03
     46.455  0.3360E+01  0.1282E+03
     46.483  0.3198E+01  0.1283E+03
     46.510  0.1768E+01  0.1283E+03
     46.538  0.3895E+01  0.1284E+03
     46.566  0.2767E+01  0.1285E+03
     46.594  0.2995E+01  0.1286E+03
     46.621  0.3316E+01  0.1287E+03
     46.649  0.4728E+01  0.1288E+03
     46.677  0.3628E+01  0.1289E+03
     46.704  0.2902E+01  0.1290E+03
     46.732  0.4335E+01  0.1291E+03
     46.760  0.6133E+01  0.1293E+03
     46.788  0.2899E+01  0.1294E+03
     46.815  0.6685E+01  0.1296E+03
     46.843  0.5892E+01  0.1297E+03
     46.871  0.2846E+01  0.1298E+03
     46.898  0.4760E+01  0.1299E+03
     46.926  0.5484E+01  0.1301E+03
     46.954  0.5803E+01  0.1302E+03
     46.982  0.6622E+01  0.1304E+03
     47.009  0.8898E+00  0.1305E+03
     47.037  0.2360E+01  0.1305E+03
     47.065  0.2228E+01  0.1306E+03
     47.092  0.3331E+01  0.1307E+03
     47.120  0.2276E+01  0.1307E+03
     47.148  0.4797E+01  0.1309E+03
     47.176  0.5039E+01  0.1310E+03
     47.203  0.4380E+01  0.1311E+03
     47.231  0.2408E+01  0.1312E+03
     47.259  0.1966E+01  0.1313E+03
     47.286  0.3166E+01  0.1313E+03
     47.314  0.4135E+01  0.1315E+03
     47.342  0.5334E+01  0.1316E+03
     47.370  0.4726E+01  0.1317E+03
     47.397  0.1921E+01  0.1318E+03
     47.425  0.3654E+01  0.1319E+03
     47.453  0.2722E+01  0.1320E+03
     47.480  0.3399E+01  0.1321E+03
     47.508  0.4505E+01  0.1322E+03
     47.536  0.2324E+01  0.1322E+03
     47.564  0.2207E+01  0.1323E+03
     47.591  0.2190E+01  0.1324E+03
     47.619  0.4016E+01  0.1325E+03
     47.647  0.2356E+01  0.1325E+03
     47.674  0.3894E+01  0.1327E+03
     47.702  0.3807E+01  0.1328E+03
     47.730  0.6188E+01  0.1329E+03
     47.758  0.5895E+01  0.1331E+03
     47.785  0.4369E+01  0.1332E+03
     47.813  0.5198E+01  0.1334E+03
     47.841  0.3399E+01  0.1335E+03
     47.868  0.4039E+01  0.1336E+03
     47.896  0.4697E+01  0.1337E+03
     47.924  0.3520E+01  0.1338E+03
     47.952  0.1616E+01  0.1338E+03
     47.979  0.5002E+01  0.1340E+03
     48.007  0.4845E+01  0.1341E+03
     48.035  0.4748E+01  0.1342E+03
     48.062  0.3736E+01  0.1343E+03
     48.090  0.3744E+01  0.1345E+03
     48.118  0.5360E+01  0.1346E+03
     48.146  0.6045E+01  0.1348E+03
     48.173  0.5049E+01  0.1349E+03
     48.201  0.3486E+01  0.1350E+03
     48.229  0.1724E+01  0.1351E+03
     48.257  0.2469E+01  0.1351E+03
     48.284  0.1731E+01  0.1352E+03
     48.312  0.3890E+01  0.1353E+03
     48.340  0.4221E+01  0.1354E+03
     48.367  0.3824E+01  0.1355E+03
     48.395  0.3476E+01  0.1356E+03
     48.423  0.2599E+01  0.1357E+03
     48.451  0.4157E+01  0.1358E+03
     48.478  0.5172E+01  0.1359E+03
     48.506  0.3837E+01  0.1360E+03
     48.534  0.4059E+01  0.1361E+03
     48.561  0.3907E+01  0.1363E+03
     48.589  0.3778E+01  0.1364E+03
     48.617  0.4660E+01  0.1365E+03
     48.645  0.3714E+01  0.1366E+03
     48.672  0.4663E+01  0.1367E+03
     48.700  0.4911E+01  0.1369E+03
     48.728  0.3970E+01  0.1370E+03
     48.755  0.2218E+01  0.1370E+03
     48.783  0.3792E+01  0.1371E+03
     48.811  0.3530E+01  0.1372E+03
     48.839  0.2778E+01  0.1373E+03
     48.866  0.1823E+01  0.1374E+03
     48.894  0.1994E+01  0.1374E+03
     48.922  0.4428E+01  0.1375E+03
     48.949  0.6942E+01  0.1377E+03
     48.977  0.4533E+01  0.1379E+03
     49.005  0.3323E+01  0.1379E+03
     49.033  0.3474E+01  0.1380E+03
     49.060  0.2660E+01  0.1381E+03
     49.088  0.3485E+01  0.1382E+03
     49.116  0.6044E+01  0.1384E+03
     49.143  0.4117E+01  0.1385E+03
     49.171  0.5465E+01  0.1386E+03
     49.199  0.3178E+01  0.1387E+03
     49.227  0.3818E+01  0.1388E+03
     49.254  0.1747E+01  0.1389E+03
     49.282  0.1741E+01  0.1389E+03
     49.310  0.4469E+01  0.1391E+03
     49.337  0.2884E+01  0.1391E+03
     49.365  0.4353E+01  0.1393E+03
     49.393  0.4035E+01  0.1394E+03
     49.421  0.3660E+01  0.1395E+03
     49.448  0.3373E+01  0.1396E+03
     49.476  0.2728E+01  0.1396E+03
     49.504  0.2525E+01  0.1397E+03
     49.531  0.4552E+01  0.1398E+03
     49.559  0.3896E+01  0.1399E+03
     49.587  0.2620E+01  0.1400E+03
     49.615  0.3784E+01  0.1401E+03
     49.642  0.8675E+01  0.1404E+03
     49.670  0.4840E+01  0.1405E+03
     49.698  0.2653E+01  0.1406E+03
     49.725  0.3438E+01  0.1407E+03
     49.753  0.2695E+01  0.1407E+03
     49.781  0.2206E+01  0.1408E+03
     49.809  0.1933E+01  0.1409E+03
     49.836  0.3668E+01  0.1410E+03
     49.864  0.6207E+01  0.1411E+03
     49.892  0.4908E+01  0.1413E+03
     49.919  0.3273E+01  0.1414E+03
     49.947  0.2060E+01  0.1414E+03
     49.975  0.4366E+01  0.1415E+03
     50.003  0.3823E+01  0.1416E+03
     50.030  0.3447E+01  0.1417E+03
     50.058  0.1983E+01  0.1418E+03
     50.086  0.3197E+01  0.1419E+03
     50.113  0.2750E+01  0.1420E+03
     50.141  0.1455E+01  0.1420E+03
     50.169  0.3800E+01  0.1421E+03
     50.197  0.2418E+01  0.1422E+03
     50.224  0.3283E+01  0.1423E+03
     50.252  0.1419E+01  0.1423E+03
     50.280  0.2834E+01  0.1424E+03
     50.307  0.3010E+01  0.1425E+03
     50.335  0.2750E+01  0.1425E+03
     50.363  0.3847E+01  0.1426E+03
     50.391  0.2337E+01  0.1427E+03
     50.418  0.4224E+01  0.1428E+03
     50.446  0.3668E+01  0.1429E+03
     50.474  0.2235E+01  0.1430E+03
     50.501  0.5309E+01  0.1431E+03
     50.529  0.5457E+01  0.1433E+03
     50.557  0.6518E+01  0.1435E+03
     50.585  0.4756E+01  0.1436E+03
     50.612  0.6073E+01  0.1438E+03
     50.640  0.3040E+01  0.1439E+03
     50.668  0.2212E+01  0.1439E+03
     50.695  0.3280E+01  0.1440E+03
     50.723  0.5798E+01  0.1442E+03
     50.751  0.1252E+01  0.1442E+03
     50.779  0.4538E+01  0.1443E+03
     50.806  0.5291E+01  0.1445E+03
     50.834  0.2406E+01  0.1445E+03
     50.862  0.2008E+01  0.1446E+03
     50.889  0.3511E+01  0.1447E+03
     50.917  0.3142E+01  0.1448E+03
     50.945  0.4504E+01  0.1449E+03
     50.973  0.5408E+01  0.1451E+03
     51.000  0.4069E+01  0.1452E+03
     51.028  0.3017E+01  0.1453E+03
     51.056  0.7822E+01  0.1455E+03
     51.083  0.2791E+01  0.1455E+03
     51.111  0.3851E+01  0.1457E+03
     51.139  0.4349E+01  0.1458E+03
     51.167  0.4268E+01  0.1459E+03
     51.194  0.5085E+01  0.1460E+03
     51.222  0.5630E+01  0.1462E+03
     51.250  0.3982E+01  0.1463E+03
     51.277  0.4732E+01  0.1464E+03
     51.305  0.4915E+01  0.1466E+03
     51.333  0.4436E+01  0.1467E+03
     51.361  0.3205E+01  0.1468E+03
     51.388  0.4015E+01  0.1469E+03
     51.416  0.3256E+01  0.1470E+03
     51.444  0.6371E+01  0.1472E+03
     51.471  0.5050E+01  0.1473E+03
     51.499  0.5099E+01  0.1474E+03
     51.527  0.2738E+01  0.1475E+03
     51.555  0.3035E+01  0.1476E+03
     51.582  0.2576E+01  0.1477E+03
     51.610  0.4976E+01  0.1478E+03
     51.638  0.4821E+01  0.1479E+03
     51.665  0.3805E+01  0.1480E+03
     51.693  0.1698E+01  0.1481E+03
     51.721  0.4589E+01  0.1482E+03
     51.749  0.2616E+01  0.1483E+03
     51.776  0.2516E+01  0.1484E+03
     51.804  0.5667E+01  0.1485E+03
     51.832  0.2187E+01  0.1486E+03
     51.859  0.1046E+01  0.1486E+03
     51.887  0.1378E+01  0.1486E+03
     51.915  0.3742E+01  0.1488E+03
     51.943  0.1721E+01  0.1488E+03
     51.970  0.2916E+01  0.1489E+03
     51.998  0.2481E+01  0.1489E+03
     52.026  0.4188E+01  0.1491E+03
     52.053  0.3052E+01  0.1491E+03
     52.081  0.6931E+01  0.1493E+03
     52.109  0.3578E+01  0.1494E+03
     52.137  0.4147E+01  0.1496E+03
     52.164  0.3087E+01  0.1496E+03
     52.192  0.5241E+01  0.1498E+03
     52.220  0.4780E+01  0.1499E+03
     52.247  0.3425E+01  0.1500E+03
     52.275  0.4172E+01  0.1501E+03
     52.303  0.3244E+01  0.1502E+03
     52.331  0.3125E+01  0.1503E+03
     52.358  0.3684E+01  0.1504E+03
     52.386  0.3682E+01  0.1505E+03
     52.414  0.2874E+01  0.1506E+03
     52.441  0.7001E+01  0.1508E+03
     52.469  0.4310E+01  0.1509E+03
     52.497  0.5400E+01  0.1511E+03
     52.525  0.1944E+01  0.1511E+03
     52.552  0.2160E+01  0.1512E+03
     52.580  0.4782E+01  0.1513E+03
     52.608  0.3595E+01  0.1514E+03
     52.635  0.3959E+01  0.1515E+03
     52.663  0.3626E+01  0.1516E+03
     52.691  0.6751E+01  0.1518E+03
     52.719  0.4509E+01  0.1519E+03
     52.746  0.4779E+01  0.1521E+03
     52.774  0.1774E+01  0.1521E+03
     52.802  0.4616E+01  0.1522E+03
     52.829  0.3549E+01  0.1523E+03
     52.857  0.2518E+01  0.1524E+03
     52.885  0.2641E+01  0.1525E+03
     52.913  0.2889E+01  0.1526E+03
     52.940  0.5401E+01  0.1527E+03
     52.968  0.4554E+01  0.1528E+03
     52.996  0.4228E+01  0.1529E+03
     53.023  0.7003E+01  0.1531E+03
     53.051  0.7214E+01  0.1533E+03
     53.079  0.4540E+01  0.1535E+03
     53.107  0.4079E+01  0.1536E+03
     53.134  0.2671E+01  0.1537E+03
     53.162  0.6425E+01  0.1538E+03
     53.190  0.4782E+01  0.1540E+03
     53.217  0.2865E+01  0.1540E+03
     53.245  0.2388E+01  0.1541E+03
     53.273  0.5007E+01  0.1542E+03
     53.301  0.1582E+01  0.1543E+03
     53.328  0.3901E+01  0.1544E+03
     53.356  0.5839E+01  0.1546E+03
     53.384  0.2262E+01  0.1546E+03
     53.411  0.4275E+01  0.1547E+03
     53.439  0.3736E+01  0.1548E+03
     53.467  0.3587E+01  0.1549E+03
     53.495  0.3701E+01  0.1550E+03
     53.522  0.4361E+01  0.1552E+03
     53.550  0.2158E+01  0.1552E+03
     53.578  0.2188E+01  0.1553E+03
     53.605  0.2448E+01  0.1554E+03
     53.633  0.5996E+01  0.1555E+03
     53.661  0.4686E+01  0.1557E+03
     53.689  0.3633E+01  0.1558E+03
     53.716  0.1477E+01  0.1558E+03
     53.744  0.3549E+01  0.1559E+03
     53.772  0.4297E+01  0.1560E+03
     53.799  0.5744E+01  0.1562E+03
     53.827  0.3725E+01  0.1563E+03
     53.855  0.5182E+01  0.1564E+03
     53.883  0.4790E+01  0.1565E+03
     53.910  0.4005E+01  0.1567E+03
     53.938  0.3766E+01  0.1568E+03
     53.966  0.3821E+01  0.1569E+03
     53.993  0.5008E+01  0.1570E+03
     54.021  0.2805E+01  0.1571E+03
     54.049  0.2252E+01  0.1571E+03
     54.077  0.4537E+01  0.1573E+03
     54.104  0.3030E+01  0.1574E+03
     54.132  0.3406E+01  0.1575E+03
     54.160  0.3081E+01  0.1575E+03
     54.187  0.2553E+01  0.1576E+03
     54.215  0.3817E+01  0.1577E+03
     54.243  0.4771E+01  0.1578E+03
     54.271  0.4063E+01  0.1580E+03
     54.298  0.3490E+01  0.1581E+03
     54.326  0.4480E+01  0.1582E+03
     54.354  0.6601E+01  0.1584E+03
     54.381  0.3637E+01  0.1585E+03
     54.409  0.3857E+01  0.1586E+03
     54.437  0.2333E+01  0.1586E+03
     54.465  0.2912E+01  0.1587E+03
     54.492  0.3434E+01  0.1588E+03
     54.520  0.4301E+01  0.1589E+03
     54.548  0.6370E+01  0.1591E+03
     54.575  0.4540E+01  0.1592E+03
     54.603  0.3588E+01  0.1593E+03
     54.631  0.5355E+01  0.1595E+03
     54.659  0.4177E+01  0.1596E+03
     54.686  0.4244E+01  0.1597E+03
     54.714  0.7970E+01  0.1599E+03
     54.742  0.7930E+01  0.1602E+03
     54.769  0.5291E+01  0.1603E+03
     54.797  0.3075E+01  0.1604E+03
     54.825  0.6387E+01  0.1606E+03
     54.853  0.7626E+01  0.1608E+03
     54.880  0.4406E+01  0.1609E+03
     54.908  0.6502E+01  0.1611E+03
     54.936  0.4498E+01  0.1612E+03
     54.963  0.3952E+01  0.1613E+03
     54.991  0.3880E+01  0.1614E+03
     55.019  0.2983E+01  0.1615E+03
     55.047  0.6193E+01  0.1617E+03
     55.074  0.3432E+01  0.1618E+03
     55.102  0.4474E+01  0.1619E+03
     55.130  0.6598E+01  0.1621E+03
     55.157  0.4952E+01  0.1622E+03
     55.185  0.4274E+01  0.1623E+03
     55.213  0.6410E+01  0.1625E+03
     55.241  0.2184E+01  0.1626E+03
     55.268  0.1545E+01  0.1626E+03
     55.296  0.4505E+01  0.1627E+03
     55.324  0.1219E+01  0.1628E+03
     55.351  0.4657E+01  0.1629E+03
     55.379  0.2479E+01  0.1630E+03
     55.407  0.4041E+01  0.1631E+03
     55.435  0.4114E+01  0.1632E+03
     55.462  0.1998E+01  0.1633E+03
     55.490  0.2816E+01  0.1633E+03
     55.518  0.1831E+01  0.1634E+03
     55.545  0.2324E+01  0.1634E+03
     55.573  0.1718E+01  0.1635E+03
     55.601  0.5002E+01  0.1636E+03
     55.629  0.3541E+01  0.1637E+03
     55.656  0.3891E+01  0.1638E+03
     55.684  0.7910E+01  0.1641E+03
     55.712  0.2548E+01  0.1641E+03
     55.739  0.2243E+01  0.1642E+03
     55.767  0.3203E+01  0.1643E+03
     55.795  0.3355E+01  0.1644E+03
     55.823  0.4684E+01  0.1645E+03
     55.850  0.2653E+01  0.1646E+03
     55.878  0.2396E+01  0.1646E+03
     55.906  0.4025E+01  0.1648E+03
     55.933  0.7385E+01  0.1650E+03
     55.961  0.4581E+01  0.1651E+03
     55.989  0.6637E+01  0.1653E+03
     56.017  0.7969E+01  0.1655E+03
     56.044  0.4754E+01  0.1656E+03
     56.072  0.5096E+01  0.1658E+03
     56.100  0.5139E+01  0.1659E+03
     56.127  0.4276E+01  0.1660E+03
     56.155  0.4611E+01  0.1661E+03
     56.183  0.3613E+01  0.1662E+03
     56.211  0.2940E+01  0.1663E+03
     56.238  0.2987E+01  0.1664E+03
     56.266  0.5332E+01  0.1666E+03
     56.294  0.3911E+01  0.1667E+03
     56.321  0.3443E+01  0.1668E+03
     56.349  0.4673E+01  0.1669E+03
     56.377  0.5629E+01  0.1671E+03
     56.405  0.5750E+01  0.1672E+03
     56.432  0.4557E+01  0.1673E+03
     56.460  0.3709E+01  0.1674E+03
     56.488  0.6145E+01  0.1676E+03
     56.515  0.2274E+01  0.1677E+03
     56.543  0.2701E+01  0.1677E+03
     56.571  0.4958E+01  0.1679E+03
     56.599  0.4055E+01  0.1680E+03
     56.626  0.6412E+01  0.1682E+03
     56.654  0.4207E+01  0.1683E+03
     56.682  0.5589E+01  0.1684E+03
     56.709  0.3353E+01  0.1685E+03
     56.737  0.2359E+01  0.1686E+03
     56.765  0.2232E+01  0.1687E+03
     56.793  0.2793E+01  0.1687E+03
     56.820  0.4112E+01  0.1689E+03
     56.848  0.5538E+01  0.1690E+03
     56.876  0.4159E+01  0.1691E+03
     56.903  0.3363E+01  0.1692E+03
     56.931  0.6805E+01  0.1694E+03
     56.959  0.2907E+01  0.1695E+03
     56.987  0.5881E+01  0.1697E+03
     57.014  0.6861E+01  0.1698E+03
     57.042  0.3729E+01  0.1699E+03
     57.070  0.3699E+01  0.1700E+03
     57.098  0.4921E+01  0.1702E+03
     57.125  0.8526E+01  0.1704E+03
     57.153  0.4873E+01  0.1706E+03
     57.181  0.4375E+01  0.1707E+03
     57.208  0.4068E+01  0.1708E+03
     57.236  0.2949E+01  0.1709E+03
     57.264  0.4761E+01  0.1710E+03
     57.292  0.3422E+01  0.1711E+03
     57.319  0.3888E+01  0.1712E+03
     57.347  0.2436E+01  0.1713E+03
     57.375  0.3593E+01  0.1714E+03
     57.402  0.4598E+01  0.1715E+03
     57.430  0.2121E+01  0.1716E+03
     57.458  0.7181E+01  0.1718E+03
     57.486  0.4335E+01  0.1719E+03
     57.513  0.5594E+01  0.1720E+03
     57.541  0.3656E+01  0.1721E+03
     57.569  0.4588E+01  0.1723E+03
     57.596  0.3266E+01  0.1724E+03
     57.624  0.1925E+01  0.1724E+03
     57.652  0.1609E+01  0.1725E+03
     57.680  0.2097E+01  0.1725E+03
     57.707  0.4619E+01  0.1726E+03
     57.735  0.7806E+01  0.1729E+03
     57.763  0.4889E+01  0.1730E+03
     57.790  0.4628E+01  0.1731E+03
     57.818  0.2483E+01  0.1732E+03
     57.846  0.1264E+01  0.1732E+03
     57.874  0.4159E+01  0.1733E+03
     57.901  0.5817E+01  0.1735E+03
     57.929  0.8286E+01  0.1737E+03
     57.957  0.5906E+01  0.1739E+03
     57.984  0.2209E+01  0.1740E+03
     58.012  0.2987E+01  0.1740E+03
     58.040  0.3635E+01  0.1741E+03
     58.068  0.5960E+01  0.1743E+03
     58.095  0.5489E+01  0.1745E+03
     58.123  0.3411E+01  0.1745E+03
     58.151  0.4220E+01  0.1747E+03
     58.178  0.4139E+01  0.1748E+03
     58.206  0.4880E+01  0.1749E+03
     58.234  0.4749E+01  0.1750E+03
     58.262  0.2979E+01  0.1751E+03
     58.289  0.2733E+01  0.1752E+03
     58.317  0.4165E+01  0.1753E+03
     58.345  0.3545E+01  0.1754E+03
     58.372  0.4525E+01  0.1755E+03
     58.400  0.3710E+01  0.1756E+03
     58.428  0.5748E+01  0.1758E+03
     58.456  0.4566E+01  0.1759E+03
     58.483  0.3504E+01  0.1760E+03
     58.511  0.2560E+01  0.1761E+03
     58.539  0.3358E+01  0.1762E+03
     58.566  0.2187E+01  0.1763E+03
     58.594  0.3771E+01  0.1764E+03
     58.622  0.4363E+01  0.1765E+03
     58.650  0.5512E+01  0.1766E+03
     58.677  0.5268E+01  0.1768E+03
     58.705  0.4501E+01  0.1769E+03
     58.733  0.2970E+01  0.1770E+03
     58.760  0.5507E+01  0.1771E+03
     58.788  0.3524E+01  0.1772E+03
     58.816  0.3661E+01  0.1773E+03
     58.844  0.3804E+01  0.1774E+03
     58.871  0.3826E+01  0.1775E+03
     58.899  0.4566E+01  0.1777E+03
     58.927  0.4188E+01  0.1778E+03
     58.954  0.5907E+01  0.1780E+03
     58.982  0.4426E+01  0.1781E+03
     59.010  0.2749E+01  0.1782E+03
     59.038  0.3063E+01  0.1782E+03
     59.065  0.4657E+01  0.1784E+03
     59.093  0.5576E+01  0.1785E+03
     59.121  0.4041E+01  0.1786E+03
     59.148  0.5176E+01  0.1788E+03
     59.176  0.3408E+01  0.1789E+03
     59.204  0.3998E+01  0.1790E+03
     59.232  0.7349E+01  0.1792E+03
     59.259  0.5466E+01  0.1793E+03
     59.287  0.2697E+01  0.1794E+03
     59.315  0.5882E+01  0.1796E+03
     59.342  0.4768E+01  0.1797E+03
     59.370  0.5546E+01  0.1799E+03
     59.398  0.4448E+01  0.1800E+03
     59.426  0.3161E+01  0.1801E+03
     59.453  0.4183E+01  0.1802E+03
     59.481  0.5067E+01  0.1803E+03
     59.509  0.1819E+01  0.1804E+03
     59.536  0.4212E+01  0.1805E+03
     59.564  0.5648E+01  0.1807E+03
     59.592  0.2256E+01  0.1807E+03
     59.620  0.6006E+01  0.1809E+03
     59.647  0.7708E+01  0.1811E+03
     59.675  0.4873E+01  0.1812E+03
     59.703  0.3495E+01  0.1813E+03
     59.730  0.3562E+01  0.1814E+03
     59.758  0.3723E+01  0.1815E+03
     59.786  0.3130E+01  0.1816E+03
     59.814  0.4438E+01  0.1817E+03
     59.841  0.3627E+01  0.1818E+03
     59.869  0.4887E+01  0.1820E+03
     59.897  0.5836E+01  0.1821E+03
     59.924  0.5290E+01  0.1823E+03
     59.952  0.2313E+01  0.1823E+03
     59.980  0.3380E+01  0.1824E+03
     60.008  0.4258E+01  0.1826E+03
     60.035  0.4369E+01  0.1827E+03
     60.063  0.3987E+01  0.1828E+03
     60.091  0.4347E+01  0.1829E+03
     60.118  0.5134E+01  0.1831E+03
     60.146  0.4673E+01  0.1832E+03
     60.174  0.4394E+01  0.1833E+03
     60.202  0.1546E+01  0.1833E+03
     60.229  0.2681E+01  0.1834E+03
     60.257  0.2796E+01  0.1835E+03
     60.285  0.4224E+01  0.1836E+03
     60.312  0.4465E+01  0.1837E+03
     60.340  0.3550E+01  0.1838E+03
     60.368  0.4223E+01  0.1840E+03
     60.396  0.6037E+01  0.1841E+03
     60.423  0.4290E+01  0.1842E+03
     60.451  0.3242E+01  0.1843E+03
     60.479  0.4015E+01  0.1844E+03
     60.506  0.3613E+01  0.1845E+03
     60.534  0.7229E+01  0.1847E+03
     60.562  0.5415E+01  0.1849E+03
     60.590  0.4337E+01  0.1850E+03
     60.617  0.4664E+01  0.1851E+03
     60.645  0.2694E+01  0.1852E+03
     60.673  0.4106E+01  0.1853E+03
     60.700  0.1789E+01  0.1854E+03
     60.728  0.3436E+01  0.1855E+03
     60.756  0.3045E+01  0.1856E+03
     60.784  0.3136E+01  0.1856E+03
     60.811  0.4833E+01  0.1858E+03
     60.839  0.5410E+01  0.1859E+03
     60.867  0.5789E+01  0.1861E+03
     60.894  0.3633E+01  0.1862E+03
     60.922  0.4994E+01  0.1863E+03
     60.950  0.3173E+01  0.1864E+03
     60.978  0.5722E+01  0.1866E+03
     61.005  0.5764E+01  0.1867E+03
     61.033  0.3692E+01  0.1868E+03
     61.061  0.5560E+01  0.1870E+03
     61.088  0.5302E+01  0.1871E+03
     61.116  0.3388E+01  0.1872E+03
     61.144  0.4921E+01  0.1874E+03
     61.172  0.4043E+01  0.1875E+03
     61.199  0.2527E+01  0.1876E+03
     61.227  0.4049E+01  0.1877E+03
     61.255  0.3296E+01  0.1878E+03
     61.282  0.8324E+00  0.1878E+03
     61.310  0.3047E+01  0.1879E+03
     61.338  0.4346E+01  0.1880E+03
     61.366  0.4888E+01  0.1881E+03
     61.393  0.7336E+01  0.1883E+03
     61.421  0.4169E+01  0.1884E+03
     61.449  0.2158E+01  0.1885E+03
     61.476  0.3349E+01  0.1886E+03
     61.504  0.4926E+01  0.1887E+03
     61.532  0.5641E+01  0.1889E+03
     61.560  0.5417E+01  0.1890E+03
     61.587  0.4267E+01  0.1892E+03
     61.615  0.3984E+01  0.1893E+03
     61.643  0.4335E+01  0.1894E+03
     61.670  0.6420E+01  0.1896E+03
     61.698  0.5323E+01  0.1897E+03
     61.726  0.7034E+01  0.1899E+03
     61.754  0.3016E+01  0.1900E+03
     61.781  0.3124E+01  0.1901E+03
     61.809  0.5261E+01  0.1902E+03
     61.837  0.3509E+01  0.1903E+03
     61.864  0.5189E+01  0.1905E+03
     61.892  0.4251E+01  0.1906E+03
     61.920  0.3450E+01  0.1907E+03
     61.948  0.4168E+01  0.1908E+03
     61.975  0.2776E+01  0.1909E+03
     62.003  0.4603E+01  0.1910E+03
     62.031  0.5374E+01  0.1911E+03
     62.058  0.3438E+01  0.1912E+03
     62.086  0.2544E+01  0.1913E+03
     62.114  0.5094E+01  0.1914E+03
     62.142  0.3683E+01  0.1916E+03
     62.169  0.3524E+01  0.1916E+03
     62.197  0.2970E+01  0.1917E+03
     62.225  0.3936E+01  0.1918E+03
     62.252  0.5246E+01  0.1920E+03
     62.280  0.5356E+01  0.1921E+03
     62.308  0.2869E+01  0.1922E+03
     62.336  0.4761E+01  0.1923E+03
     62.363  0.3993E+01  0.1925E+03
     62.391  0.7914E+01  0.1927E+03
     62.419  0.3891E+01  0.1928E+03
     62.446  0.3212E+01  0.1929E+03
     62.474  0.4791E+01  0.1930E+03
     62.502  0.6075E+01  0.1932E+03
     62.530  0.5462E+01  0.1933E+03
     62.557  0.4434E+01  0.1934E+03
     62.585  0.2474E+01  0.1935E+03
     62.613  0.2102E+01  0.1936E+03
     62.640  0.5299E+01  0.1937E+03
     62.668  0.3321E+01  0.1938E+03
     62.696  0.7611E+01  0.1940E+03
     62.724  0.4995E+01  0.1942E+03
     62.751  0.1810E+01  0.1942E+03
     62.779  0.3845E+01  0.1943E+03
     62.807  0.5358E+01  0.1945E+03
     62.834  0.4671E+01  0.1946E+03
     62.862  0.4525E+01  0.1947E+03
     62.890  0.6074E+01  0.1949E+03
     62.918  0.4797E+01  0.1950E+03
     62.945  0.5243E+01  0.1952E+03
     62.973  0.2988E+01  0.1953E+03
     63.001  0.2593E+01  0.1953E+03
     63.028  0.5159E+01  0.1955E+03
     63.056  0.5692E+01  0.1956E+03
     63.084  0.5875E+01  0.1958E+03
     63.112  0.6255E+01  0.1960E+03
     63.139  0.3618E+01  0.1961E+03
     63.167  0.2094E+01  0.1961E+03
     63.195  0.1776E+01  0.1962E+03
     63.222  0.4021E+01  0.1963E+03
     63.250  0.3429E+01  0.1964E+03
     63.278  0.2995E+01  0.1965E+03
     63.306  0.4076E+01  0.1966E+03
     63.333  0.4884E+01  0.1967E+03
     63.361  0.3631E+01  0.1968E+03
     63.389  0.5173E+01  0.1970E+03
     63.416  0.4347E+01  0.1971E+03
     63.444  0.7734E+01  0.1973E+03
     63.472  0.4444E+01  0.1974E+03
     63.500  0.3640E+01  0.1975E+03
     63.527  0.1670E+01  0.1976E+03
     63.555  0.3532E+01  0.1977E+03
     63.583  0.5354E+01  0.1978E+03
     63.610  0.6396E+01  0.1980E+03
     63.638  0.4711E+01  0.1981E+03
     63.666  0.4432E+01  0.1982E+03
     63.694  0.3194E+01  0.1983E+03
     63.721  0.4526E+01  0.1984E+03
     63.749  0.9731E+01  0.1987E+03
     63.777  0.5085E+01  0.1989E+03
     63.804  0.4310E+01  0.1990E+03
     63.832  0.4160E+01  0.1991E+03
     63.860  0.4041E+01  0.1992E+03
     63.888  0.5905E+01  0.1994E+03
     63.915  0.2803E+01  0.1994E+03
     63.943  0.4037E+01  0.1996E+03
     63.971  0.3724E+01  0.1997E+03
     63.998  0.2574E+01  0.1997E+03
     64.026  0.6154E+01  0.1999E+03
     64.054  0.6037E+01  0.2001E+03
     64.082  0.3593E+01  0.2002E+03
     64.109  0.5121E+01  0.2003E+03
     64.137  0.1380E+01  0.2003E+03
     64.165  0.2787E+01  0.2004E+03
     64.192  0.2544E+01  0.2005E+03
     64.220  0.4471E+01  0.2006E+03
     64.248  0.5171E+01  0.2008E+03
     64.276  0.4389E+01  0.2009E+03
     64.303  0.4202E+01  0.2010E+03
     64.331  0.4760E+01  0.2011E+03
     64.359  0.3490E+01  0.2012E+03
     64.386  0.3736E+01  0.2013E+03
     64.414  0.5389E+01  0.2015E+03
     64.442  0.6828E+01  0.2017E+03
     64.470  0.6149E+01  0.2018E+03
     64.497  0.6405E+01  0.2020E+03
     64.525  0.1982E+01  0.2021E+03
     64.553  0.1378E+01  0.2021E+03
     64.580  0.7199E+01  0.2023E+03
     64.608  0.3568E+01  0.2024E+03
     64.636  0.4245E+01  0.2025E+03
     64.664  0.5032E+01  0.2027E+03
     64.691  0.7327E+01  0.2029E+03
     64.719  0.4726E+01  0.2030E+03
     64.747  0.2882E+01  0.2031E+03
     64.774  0.3687E+01  0.2032E+03
     64.802  0.4421E+01  0.2033E+03
     64.830  0.3609E+01  0.2034E+03
     64.858  0.4944E+01  0.2035E+03
     64.885  0.3920E+01  0.2037E+03
     64.913  0.3457E+01  0.2038E+03
     64.941  0.2580E+01  0.2038E+03
     64.968  0.3285E+01  0.2039E+03
     64.996  0.2939E+01  0.2040E+03
     65.024  0.6773E+01  0.2042E+03
     65.052  0.5398E+01  0.2043E+03
     65.079  0.2504E+01  0.2044E+03
     65.107  0.6019E+01  0.2046E+03
     65.135  0.3448E+01  0.2047E+03
     65.162  0.3639E+01  0.2048E+03
     65.190  0.5579E+01  0.2049E+03
     65.218  0.6933E+01  0.2051E+03
     65.246  0.5400E+01  0.2053E+03
     65.273  0.2018E+01  0.2053E+03
     65.301  0.5507E+01  0.2055E+03
     65.329  0.2856E+01  0.2055E+03
     65.356  0.4191E+01  0.2057E+03
     65.384  0.3974E+01  0.2058E+03
     65.412  0.3438E+01  0.2059E+03
     65.440  0.5040E+01  0.2060E+03
     65.467  0.2416E+01  0.2061E+03
     65.495  0.1514E+01  0.2061E+03
     65.523  0.5073E+01  0.2063E+03
     65.550  0.5418E+01  0.2064E+03
     65.578  0.5663E+01  0.2066E+03
     65.606  0.4415E+01  0.2067E+03
     65.634  0.3977E+01  0.2068E+03
     65.661  0.4059E+01  0.2069E+03
     65.689  0.2496E+01  0.2070E+03
     65.717  0.6253E+01  0.2072E+03
     65.744  0.3030E+01  0.2072E+03
     65.772  0.1201E+01  0.2073E+03
     65.800  0.3965E+01  0.2074E+03
     65.828  0.3289E+01  0.2075E+03
     65.855  0.4288E+01  0.2076E+03
     65.883  0.2124E+01  0.2077E+03
     65.911  0.3462E+01  0.2077E+03
     65.939  0.4934E+01  0.2079E+03
     65.966  0.9494E+01  0.2081E+03
     65.994  0.3726E+01  0.2082E+03
     66.022  0.5443E+01  0.2084E+03
     66.049  0.4335E+01  0.2085E+03
     66.077  0.2707E+01  0.2086E+03
     66.105  0.4137E+01  0.2087E+03
     66.133  0.6650E+01  0.2089E+03
     66.160  0.4401E+01  0.2090E+03
     66.188  0.4899E+01  0.2092E+03
     66.216  0.6936E+01  0.2093E+03
     66.243  0.3679E+01  0.2094E+03
     66.271  0.6110E+01  0.2096E+03
     66.299  0.5101E+01  0.2098E+03
     66.327  0.2823E+01  0.2098E+03
     66.354  0.3695E+01  0.2099E+03
     66.382  0.3333E+01  0.2100E+03
     66.410  0.2955E+01  0.2101E+03
     66.437  0.7930E+01  0.2103E+03
     66.465  0.6695E+01  0.2105E+03
     66.493  0.3797E+01  0.2106E+03
     66.521  0.4392E+01  0.2107E+03
     66.548  0.5300E+01  0.2109E+03
     66.576  0.4461E+01  0.2110E+03
     66.604  0.7405E+01  0.2112E+03
     66.631  0.2891E+01  0.2113E+03
     66.659  0.8328E+01  0.2115E+03
     66.687  0.3719E+01  0.2116E+03
     66.715  0.6069E+01  0.2118E+03
     66.742  0.2999E+01  0.2119E+03
     66.770  0.4734E+01  0.2120E+03
     66.798  0.1907E+01  0.2121E+03
     66.825  0.3506E+01  0.2122E+03
     66.853  0.5702E+01  0.2123E+03
     66.881  0.2560E+01  0.2124E+03
     66.909  0.4043E+01  0.2125E+03
     66.936  0.5790E+01  0.2127E+03
     66.964  0.5050E+01  0.2128E+03
     66.992  0.3014E+01  0.2129E+03
     67.019  0.5838E+01  0.2131E+03
     67.047  0.6609E+01  0.2132E+03
     67.075  0.3467E+01  0.2133E+03
     67.103  0.6069E+01  0.2135E+03
     67.130  0.5918E+01  0.2137E+03
     67.158  0.5050E+01  0.2138E+03
     67.186  0.5373E+01  0.2140E+03
     67.213  0.4927E+01  0.2141E+03
     67.241  0.5192E+01  0.2142E+03
     67.269  0.5585E+01  0.2144E+03
     67.297  0.3986E+01  0.2145E+03
     67.324  0.4435E+01  0.2146E+03
     67.352  0.1983E+01  0.2147E+03
     67.380  0.2433E+01  0.2147E+03
     67.407  0.2895E+01  0.2148E+03
     67.435  0.4762E+01  0.2150E+03
     67.463  0.4922E+01  0.2151E+03
     67.491  0.5785E+01  0.2153E+03
     67.518  0.4904E+01  0.2154E+03
     67.546  0.4023E+01  0.2155E+03
     67.574  0.2997E+01  0.2156E+03
     67.601  0.4091E+01  0.2157E+03
     67.629  0.3409E+01  0.2158E+03
     67.657  0.3616E+01  0.2159E+03
     67.685  0.4013E+01  0.2160E+03
     67.712  0.3210E+01  0.2161E+03
     67.740  0.2407E+01  0.2162E+03
     67.768  0.5531E+01  0.2163E+03
     67.795  0.1815E+01  0.2164E+03
     67.823  0.2863E+01  0.2164E+03
     67.851  0.5810E+01  0.2166E+03
     67.879  0.6330E+01  0.2168E+03
     67.906  0.5491E+01  0.2169E+03
     67.934  0.4745E+01  0.2171E+03
     67.962  0.6410E+01  0.2172E+03
     67.989  0.6201E+01  0.2174E+03
     68.017  0.6110E+01  0.2176E+03
     68.045  0.4308E+01  0.2177E+03
     68.073  0.2440E+01  0.2178E+03
     68.100  0.4524E+01  0.2179E+03
     68.128  0.3033E+01  0.2180E+03
     68.156  0.4579E+01  0.2181E+03
     68.183  0.3972E+01  0.2182E+03
     68.211  0.5604E+01  0.2184E+03
     68.239  0.4431E+01  0.2185E+03
     68.267  0.2925E+01  0.2186E+03
     68.294  0.6133E+01  0.2187E+03
     68.322  0.4079E+01  0.2189E+03
     68.350  0.4963E+01  0.2190E+03
     68.377  0.7147E+01  0.2192E+03
     68.405  0.5308E+01  0.2193E+03
     68.433  0.4299E+01  0.2195E+03
     68.461  0.6808E+01  0.2196E+03
     68.488  0.4879E+01  0.2198E+03
     68.516  0.6907E+01  0.2200E+03
     68.544  0.7608E+01  0.2202E+03
     68.571  0.5116E+01  0.2203E+03
     68.599  0.5074E+01  0.2205E+03
     68.627  0.3374E+01  0.2206E+03
     68.655  0.4295E+01  0.2207E+03
     68.682  0.2052E+01  0.2207E+03
     68.710  0.2002E+01  0.2208E+03
     68.738  0.4781E+01  0.2209E+03
     68.765  0.5302E+01  0.2211E+03
     68.793  0.5407E+01  0.2212E+03
     68.821  0.3839E+01  0.2213E+03
     68.849  0.6080E+01  0.2215E+03
     68.876  0.8582E+01  0.2217E+03
     68.904  0.5156E+01  0.2219E+03
     68.932  0.5314E+01  0.2220E+03
     68.959  0.3706E+01  0.2221E+03
     68.987  0.2499E+01  0.2222E+03
     69.015  0.1242E+01  0.2222E+03
     69.043  0.3537E+01  0.2223E+03
     69.070  0.2735E+01  0.2224E+03
     69.098  0.2865E+01  0.2225E+03
     69.126  0.4135E+01  0.2226E+03
     69.153  0.5888E+01  0.2228E+03
     69.181  0.4188E+01  0.2229E+03
     69.209  0.4982E+01  0.2230E+03
     69.237  0.6911E+01  0.2232E+03
     69.264  0.3197E+01  0.2233E+03
     69.292  0.4838E+01  0.2234E+03
     69.320  0.3478E+01  0.2235E+03
     69.347  0.3350E+01  0.2236E+03
     69.375  0.4735E+01  0.2238E+03
     69.403  0.6588E+01  0.2239E+03
     69.431  0.7068E+01  0.2241E+03
     69.458  0.6154E+01  0.2243E+03
     69.486  0.4517E+01  0.2244E+03
     69.514  0.4401E+01  0.2245E+03
     69.541  0.6168E+01  0.2247E+03
     69.569  0.7542E+01  0.2249E+03
     69.597  0.3550E+01  0.2250E+03
     69.625  0.4756E+01  0.2252E+03
     69.652  0.2842E+01  0.2252E+03
     69.680  0.5815E+01  0.2254E+03
     69.708  0.4722E+01  0.2255E+03
     69.735  0.4012E+01  0.2256E+03
     69.763  0.2754E+01  0.2257E+03
     69.791  0.1617E+01  0.2258E+03
     69.819  0.7041E+01  0.2260E+03
     69.846  0.5406E+01  0.2261E+03
     69.874  0.3761E+01  0.2262E+03
     69.902  0.5286E+01  0.2264E+03
     69.929  0.2020E+01  0.2264E+03
     69.957  0.1475E+01  0.2265E+03
     69.985  0.4723E+01  0.2266E+03
     70.013  0.6628E+01  0.2268E+03
     70.040  0.3557E+01  0.2269E+03
     70.068  0.4948E+01  0.2270E+03
     70.096  0.4842E+01  0.2271E+03
     70.123  0.5094E+01  0.2273E+03
     70.151  0.5728E+01  0.2274E+03
     70.179  0.2659E+01  0.2275E+03
     70.207  0.2900E+01  0.2276E+03
     70.234  0.4485E+01  0.2277E+03
     70.262  0.3965E+01  0.2278E+03
     70.290  0.3920E+01  0.2279E+03
     70.317  0.5860E+01  0.2281E+03
     70.345  0.2253E+01  0.2282E+03
     70.373  0.5131E+01  0.2283E+03
     70.401  0.5420E+01  0.2285E+03
     70.428  0.2831E+01  0.2285E+03
     70.456  0.5914E+01  0.2287E+03
     70.484  0.5388E+01  0.2288E+03
     70.511  0.2976E+01  0.2289E+03
     70.539  0.6559E+01  0.2291E+03
     70.567  0.5904E+01  0.2293E+03
     70.595  0.5193E+01  0.2294E+03
     70.622  0.4654E+01  0.2295E+03
     70.650  0.6208E+01  0.2297E+03
     70.678  0.5001E+01  0.2299E+03
     70.705  0.3592E+01  0.2300E+03
     70.733  0.5799E+01  0.2301E+03
     70.761  0.3874E+01  0.2302E+03
     70.789  0.5068E+01  0.2304E+03
     70.816  0.7329E+01  0.2306E+03
     70.844  0.4603E+01  0.2307E+03
     70.872  0.5633E+01  0.2308E+03
     70.899  0.3805E+01  0.2310E+03
     70.927  0.3190E+01  0.2310E+03
     70.955  0.3245E+01  0.2311E+03
     70.983  0.3234E+01  0.2312E+03
     71.010  0.5227E+01  0.2314E+03
     71.038  0.2161E+01  0.2314E+03
     71.066  0.5259E+01  0.2316E+03
     71.093  0.3046E+01  0.2317E+03
     71.121  0.2300E+01  0.2317E+03
     71.149  0.3070E+01  0.2318E+03
     71.177  0.4504E+01  0.2319E+03
     71.204  0.4593E+01  0.2321E+03
     71.232  0.9839E+01  0.2323E+03
     71.260  0.5368E+01  0.2325E+03
     71.287  0.5567E+01  0.2326E+03
     71.315  0.2842E+01  0.2327E+03
     71.343  0.3269E+01  0.2328E+03
     71.371  0.3416E+01  0.2329E+03
     71.398  0.5259E+01  0.2330E+03
     71.426  0.5804E+01  0.2332E+03
     71.454  0.8658E+01  0.2334E+03
     71.481  0.6617E+01  0.2336E+03
     71.509  0.2078E+01  0.2337E+03
     71.537  0.3193E+01  0.2338E+03
     71.565  0.2649E+01  0.2338E+03
     71.592  0.5126E+01  0.2340E+03
     71.620  0.6979E+01  0.2342E+03
     71.648  0.2595E+01  0.2343E+03
     71.675  0.7114E+01  0.2345E+03
     71.703  0.5435E+01  0.2346E+03
     71.731  0.3998E+01  0.2347E+03
     71.759  0.2190E+01  0.2348E+03
     71.786  0.2602E+01  0.2348E+03
     71.814  0.4516E+01  0.2350E+03
     71.842  0.6215E+01  0.2351E+03
     71.869  0.6054E+01  0.2353E+03
     71.897  0.5855E+01  0.2355E+03
     71.925  0.3435E+01  0.2356E+03
     71.953  0.4805E+01  0.2357E+03
     71.980  0.5616E+01  0.2359E+03
     72.008  0.3677E+01  0.2360E+03
     72.036  0.6227E+01  0.2361E+03
     72.063  0.5809E+01  0.2363E+03
     72.091  0.2892E+01  0.2364E+03
     72.119  0.7233E+01  0.2366E+03
     72.147  0.4238E+01  0.2367E+03
     72.174  0.2359E+01  0.2368E+03
     72.202  0.3923E+01  0.2369E+03
     72.230  0.3783E+01  0.2370E+03
     72.257  0.3876E+01  0.2371E+03
     72.285  0.3855E+01  0.2372E+03
     72.313  0.4482E+01  0.2373E+03
     72.341  0.5313E+01  0.2375E+03
     72.368  0.5791E+01  0.2376E+03
     72.396  0.4573E+01  0.2377E+03
     72.424  0.5412E+01  0.2379E+03
     72.451  0.4703E+01  0.2380E+03
     72.479  0.6734E+01  0.2382E+03
     72.507  0.5683E+01  0.2384E+03
     72.535  0.4306E+01  0.2385E+03
     72.562  0.5118E+01  0.2386E+03
     72.590  0.8629E+00  0.2387E+03
     72.618  0.2492E+01  0.2387E+03
     72.645  0.3623E+01  0.2388E+03
     72.673  0.3198E+01  0.2389E+03
     72.701  0.2731E+01  0.2390E+03
     72.729  0.3565E+01  0.2391E+03
     72.756  0.5095E+01  0.2392E+03
     72.784  0.4505E+01  0.2394E+03
     72.812  0.6709E+01  0.2395E+03
     72.839  0.1054E+01  0.2396E+03
     72.867  0.3275E+01  0.2397E+03
     72.895  0.3716E+01  0.2398E+03
     72.923  0.1164E+01  0.2398E+03
     72.950  0.1620E+01  0.2398E+03
     72.978  0.6113E+01  0.2400E+03
     73.006  0.6832E+01  0.2402E+03
     73.033  0.3595E+01  0.2403E+03
     73.061  0.3204E+01  0.2404E+03
     73.089  0.5665E+01  0.2405E+03
     73.117  0.5308E+01  0.2407E+03
     73.144  0.8780E+01  0.2409E+03
     73.172  0.4630E+01  0.2411E+03
     73.200  0.6457E+01  0.2412E+03
     73.227  0.3557E+01  0.2413E+03
     73.255  0.5597E+01  0.2415E+03
     73.283  0.4861E+01  0.2416E+03
     73.311  0.4583E+01  0.2418E+03
     73.338  0.6879E+01  0.2419E+03
     73.366  0.5189E+01  0.2421E+03
     73.394  0.3662E+01  0.2422E+03
     73.421  0.3865E+01  0.2423E+03
     73.449  0.2755E+01  0.2424E+03
     73.477  0.5032E+01  0.2425E+03
     73.505  0.6053E+01  0.2427E+03
     73.532  0.7124E+01  0.2429E+03
     73.560  0.6077E+01  0.2430E+03
     73.588  0.4510E+01  0.2432E+03
     73.615  0.3862E+01  0.2433E+03
     73.643  0.1056E+02  0.2436E+03
     73.671  0.5429E+01  0.2437E+03
     73.699  0.4012E+01  0.2438E+03
     73.726  0.4176E+01  0.2439E+03
     73.754  0.3625E+01  0.2440E+03
     73.782  0.5529E+01  0.2442E+03
     73.809  0.5950E+01  0.2444E+03
     73.837  0.6586E+01  0.2446E+03
     73.865  0.3688E+01  0.2447E+03
     73.893  0.3706E+01  0.2448E+03
     73.920  0.4558E+01  0.2449E+03
     73.948  0.4391E+01  0.2450E+03
     73.976  0.4428E+01  0.2451E+03
     74.003  0.6300E+01  0.2453E+03
     74.031  0.7166E+01  0.2455E+03
     74.059  0.2803E+01  0.2456E+03
     74.087  0.6094E+01  0.2457E+03
     74.114  0.3677E+01  0.2458E+03
     74.142  0.3797E+01  0.2460E+03
     74.170  0.4711E+01  0.2461E+03
     74.197  0.3438E+01  0.2462E+03
     74.225  0.4403E+01  0.2463E+03
     74.253  0.3833E+01  0.2464E+03
     74.281  0.4836E+01  0.2465E+03
     74.308  0.4850E+01  0.2467E+03
     74.336  0.5857E+01  0.2468E+03
     74.364  0.5826E+01  0.2470E+03
     74.391  0.2429E+01  0.2471E+03
     74.419  0.5881E+01  0.2472E+03
     74.447  0.4996E+01  0.2474E+03
     74.475  0.2873E+01  0.2474E+03
     74.502  0.3715E+01  0.2476E+03
     74.530  0.4071E+01  0.2477E+03
     74.558  0.4043E+01  0.2478E+03
     74.585  0.5752E+01  0.2479E+03
     74.613  0.3316E+01  0.2480E+03
     74.641  0.2430E+01  0.2481E+03
     74.669  0.3663E+01  0.2482E+03
     74.696  0.3607E+01  0.2483E+03
     74.724  0.6869E+00  0.2483E+03
     74.752  0.1912E+01  0.2484E+03
     74.780  0.5040E+01  0.2485E+03
     74.807  0.3129E+01  0.2486E+03
     74.835  0.2943E+01  0.2487E+03
     74.863  0.1311E+01  0.2487E+03
     74.890  0.3866E+01  0.2488E+03
     74.918  0.3760E+01  0.2489E+03
     74.946  0.4978E+01  0.2491E+03
     74.974  0.7396E+01  0.2493E+03
     75.001  0.5531E+01  0.2494E+03
     75.029  0.2936E+01  0.2495E+03
     75.057  0.3287E+01  0.2496E+03
     75.084  0.3364E+01  0.2497E+03
     75.112  0.4668E+00  0.2497E+03
     75.140  0.2536E+01  0.2498E+03
     75.168  0.4246E+01  0.2499E+03
     75.195  0.2490E+01  0.2500E+03
     75.223  0.3101E+01  0.2500E+03
     75.251  0.6042E+01  0.2502E+03
     75.278  0.2518E+01  0.2503E+03
     75.306  0.3755E+01  0.2504E+03
     75.334  0.2989E+01  0.2505E+03
     75.362  0.4249E+01  0.2506E+03
     75.389  0.2734E+01  0.2507E+03
     75.417  0.4904E+01  0.2508E+03
     75.445  0.3445E+01  0.2509E+03
     75.472  0.4375E+01  0.2510E+03
     75.500  0.2285E+01  0.2511E+03
     75.528  0.2722E+01  0.2512E+03
     75.556  0.4482E+01  0.2513E+03
     75.583  0.1766E+01  0.2513E+03
     75.611  0.3012E+01  0.2514E+03
     75.639  0.1839E+01  0.2515E+03
     75.666  0.3675E+01  0.2516E+03
     75.694  0.2007E+01  0.2516E+03
     75.722  0.2411E+01  0.2517E+03
     75.750  0.1353E+01  0.2517E+03
     75.777  0.2438E+01  0.2518E+03
     75.805  0.2877E+01  0.2519E+03
     75.833  0.2504E+01  0.2519E+03
     75.860  0.2121E+01  0.2520E+03
     75.888  0.5836E+01  0.2522E+03
     75.916  0.2087E+01  0.2522E+03
     75.944  0.2723E+01  0.2523E+03
     75.971  0.2543E+01  0.2524E+03
     75.999  0.3683E+01  0.2525E+03
     76.027  0.5210E+01  0.2526E+03
     76.054  0.1604E+01  0.2527E+03
     76.082  0.1509E+01  0.2527E+03
     76.110  0.3401E+01  0.2528E+03
     76.138  0.3175E+01  0.2529E+03
     76.165  0.1377E+01  0.2529E+03
     76.193  0.1681E+01  0.2530E+03
     76.221  0.3425E+01  0.2531E+03
     76.248  0.3749E+01  0.2532E+03
     76.276  0.3309E+01  0.2533E+03
     76.304  0.1586E+01  0.2533E+03
     76.332  0.2903E+01  0.2534E+03
     76.359  0.8336E+00  0.2534E+03
     76.387  0.3901E+01  0.2535E+03
     76.415  0.9764E+00  0.2535E+03
     76.442  0.6655E+00  0.2536E+03
     76.470  0.1119E+01  0.2536E+03
     76.498  0.2970E+01  0.2537E+03
     76.526  0.2000E+01  0.2537E+03
     76.553  0.5301E+01  0.2539E+03
     76.581  0.2146E+01  0.2539E+03
     76.609  0.2923E+01  0.2540E+03
     76.636  0.1819E+01  0.2541E+03
     76.664  0.1278E+01  0.2541E+03
     76.692  0.1829E+01  0.2541E+03
     76.720  0.3335E+01  0.2542E+03
     76.747  0.3032E+01  0.2543E+03
     76.775  0.2751E+01  0.2544E+03
     76.803  0.1171E+01  0.2544E+03
     76.830  0.4071E+00  0.2544E+03
     76.858  0.1402E+01  0.2545E+03
     76.886  0.8975E+00  0.2545E+03
     76.914  0.1246E+01  0.2545E+03
     76.941  0.4543E+00  0.2546E+03
     76.969  0.2610E+01  0.2546E+03
     76.997  0.9872E+00  0.2547E+03
     77.024  0.5679E+00  0.2547E+03
     77.052  0.2279E+01  0.2547E+03
     77.080  0.1259E+01  0.2548E+03
     77.108  0.2937E+01  0.2548E+03
     77.135  0.8425E+00  0.2549E+03
     77.163  0.2006E+01  0.2549E+03
     77.191  0.7950E+00  0.2549E+03
     77.218  0.1729E+01  0.2550E+03
     77.246  0.4565E+00  0.2550E+03
     77.274  0.2742E+01  0.2551E+03
     77.302  0.2291E+01  0.2551E+03
     77.329  0.2647E+01  0.2552E+03
     77.357  0.1583E+01  0.2553E+03
     77.385  0.4859E+00  0.2553E+03
     77.412  0.5629E+00  0.2553E+03
     77.440  0.6773E+00  0.2553E+03
     77.468  0.7155E+00  0.2553E+03
     77.496  0.2026E+01  0.2554E+03
     77.523  0.3746E+00  0.2554E+03
     77.551  0.3347E+00  0.2554E+03
     77.579  0.8278E-01  0.2554E+03
     77.606  0.7223E+00  0.2554E+03
     77.634  0.9196E+00  0.2555E+03
     77.662  0.2038E+01  0.2555E+03
     77.690  0.1329E+01  0.2555E+03
     77.717  0.5108E+00  0.2556E+03
     77.745  0.1129E+01  0.2556E+03
     77.773  0.2629E+00  0.2556E+03
     77.800  0.1821E+01  0.2557E+03
     77.828  0.1088E+01  0.2557E+03
     77.856  0.1215E+00  0.2557E+03
     77.884  0.1317E+01  0.2557E+03
     77.911  0.5888E+00  0.2557E+03
     77.939  0.7206E+00  0.2558E+03
     77.967  0.9686E+00  0.2558E+03
     77.994  0.3245E-01  0.2558E+03
     78.022  0.3011E+00  0.2558E+03
     78.050  0.4918E+00  0.2558E+03
     78.078  0.4079E-01  0.2558E+03
     78.105  0.1121E+01  0.2558E+03
     78.133  0.7271E+00  0.2559E+03
     78.161  0.1014E+00  0.2559E+03
     78.188  0.6099E-03  0.2559E+03
     78.216  0.2277E+00  0.2559E+03
     78.244  0.2959E+00  0.2559E+03
     78.272  0.1384E+00  0.2559E+03
     78.299  0.6266E-01  0.2559E+03
     78.327  0.7277E+00  0.2559E+03
     78.355  0.4851E-02  0.2559E+03
     78.382  0.5219E-10  0.2559E+03
     78.410  0.0000E+00  0.2559E+03
     78.438  0.0000E+00  0.2559E+03
     78.466  0.0000E+00  0.2559E+03
     78.493  0.8880E-12  0.2559E+03
     78.521  0.7704E-03  0.2559E+03
     78.549  0.6441E+00  0.2559E+03
     78.576  0.9171E+00  0.2559E+03
     78.604  0.5886E-01  0.2559E+03
     78.632  0.7521E+00  0.2560E+03
     78.660  0.1256E-01  0.2560E+03
     78.687  0.2424E-01  0.2560E+03
     78.715  0.3699E+00  0.2560E+03
     78.743  0.3511E-02  0.2560E+03
     78.770  0.6226E-10  0.2560E+03
     78.798  0.0000E+00  0.2560E+03
     78.826  0.0000E+00  0.2560E+03
     78.854  0.3119E-11  0.2560E+03
     78.881  0.7595E-03  0.2560E+03
     78.909  0.2315E+00  0.2560E+03
     78.937  0.3279E-01  0.2560E+03
     78.964  0.3507E-06  0.2560E+03
     78.992  0.7416E-01  0.2560E+03
     79.020  0.3229E+00  0.2560E+03
     79.048  0.4883E-03  0.2560E+03
     79.075  0.7359E-12  0.2560E+03
     79.103  0.0000E+00  0.2560E+03
     79.131  0.0000E+00  0.2560E+03
     79.158  0.0000E+00  0.2560E+03
     79.186  0.0000E+00  0.2560E+03
     79.214  0.0000E+00  0.2560E+03
     79.242  0.0000E+00  0.2560E+03
     79.269  0.0000E+00  0.2560E+03
     79.297  0.0000E+00  0.2560E+03
     79.325  0.0000E+00  0.2560E+03
     79.352  0.0000E+00  0.2560E+03
     79.380  0.0000E+00  0.2560E+03
     79.408  0.0000E+00  0.2560E+03
     79.436  0.0000E+00  0.2560E+03
     79.463  0.0000E+00  0.2560E+03
     79.491  0.0000E+00  0.2560E+03
     79.519  0.0000E+00  0.2560E+03
     79.546  0.0000E+00  0.2560E+03
     79.574  0.0000E+00  0.2560E+03
     79.602  0.0000E+00  0.2560E+03
     79.630  0.0000E+00  0.2560E+03
     79.657  0.0000E+00  0.2560E+03
     79.685  0.0000E+00  0.2560E+03
     79.713  0.0000E+00  0.2560E+03
     79.740  0.0000E+00  0.2560E+03
     79.768  0.0000E+00  0.2560E+03
     79.796  0.0000E+00  0.2560E+03
     79.824  0.0000E+00  0.2560E+03
     79.851  0.0000E+00  0.2560E+03
     79.879  0.0000E+00  0.2560E+03
     79.907  0.0000E+00  0.2560E+03
     79.934  0.0000E+00  0.2560E+03
     79.962  0.0000E+00  0.2560E+03
     79.990  0.0000E+00  0.2560E+03
     80.018  0.0000E+00  0.2560E+03
     80.045  0.0000E+00  0.2560E+03
     80.073  0.0000E+00  0.2560E+03
     80.101  0.0000E+00  0.2560E+03
     80.128  0.0000E+00  0.2560E+03
     80.156  0.0000E+00  0.2560E+03
     80.184  0.0000E+00  0.2560E+03
     80.212  0.0000E+00  0.2560E+03
     80.239  0.0000E+00  0.2560E+03
     80.267  0.0000E+00  0.2560E+03
     80.295  0.0000E+00  0.2560E+03
     80.322  0.0000E+00  0.2560E+03
     80.350  0.0000E+00  0.2560E+03
     80.378  0.0000E+00  0.2560E+03
     80.406  0.0000E+00  0.2560E+03
     80.433  0.0000E+00  0.2560E+03
     80.461  0.0000E+00  0.2560E+03
     80.489  0.0000E+00  0.2560E+03
     80.516  0.0000E+00  0.2560E+03
     80.544  0.0000E+00  0.2560E+03
     80.572  0.0000E+00  0.2560E+03
     80.600  0.0000E+00  0.2560E+03
     80.627  0.0000E+00  0.2560E+03
     80.655  0.0000E+00  0.2560E+03
     80.683  0.0000E+00  0.2560E+03
     80.710  0.0000E+00  0.2560E+03
     80.738  0.0000E+00  0.2560E+03
     80.766  0.0000E+00  0.2560E+03
     80.794  0.0000E+00  0.2560E+03
     80.821  0.0000E+00  0.2560E+03
     80.849  0.0000E+00  0.2560E+03
     80.877  0.0000E+00  0.2560E+03
     80.904  0.0000E+00  0.2560E+03
     80.932  0.0000E+00  0.2560E+03
     80.960  0.0000E+00  0.2560E+03
     80.988  0.0000E+00  0.2560E+03
     81.015  0.0000E+00  0.2560E+03
     81.043  0.0000E+00  0.2560E+03
     81.071  0.0000E+00  0.2560E+03
     81.098  0.0000E+00  0.2560E+03
     81.126  0.0000E+00  0.2560E+03
     81.154  0.0000E+00  0.2560E+03
     81.182  0.0000E+00  0.2560E+03
     81.209  0.0000E+00  0.2560E+03
     81.237  0.0000E+00  0.2560E+03
     81.265  0.0000E+00  0.2560E+03
     81.292  0.0000E+00  0.2560E+03
     81.320  0.0000E+00  0.2560E+03
     81.348  0.0000E+00  0.2560E+03
     81.376  0.0000E+00  0.2560E+03
     81.403  0.0000E+00  0.2560E+03
     81.431  0.0000E+00  0.2560E+03
     81.459  0.0000E+00  0.2560E+03
     81.486  0.0000E+00  0.2560E+03
     81.514  0.0000E+00  0.2560E+03
     81.542  0.0000E+00  0.2560E+03
     81.570  0.0000E+00  0.2560E+03
     81.597  0.0000E+00  0.2560E+03
     81.625  0.0000E+00  0.2560E+03
     81.653  0.0000E+00  0.2560E+03
     81.680  0.0000E+00  0.2560E+03
     81.708  0.0000E+00  0.2560E+03
     81.736  0.0000E+00  0.2560E+03
     81.764  0.0000E+00  0.2560E+03
     81.791  0.0000E+00  0.2560E+03
     81.819  0.0000E+00  0.2560E+03
     81.847  0.0000E+00  0.2560E+03
     81.874  0.0000E+00  0.2560E+03
     81.902  0.0000E+00  0.2560E+03
     81.930  0.0000E+00  0.2560E+03
     81.958  0.0000E+00  0.2560E+03
     81.985  0.0000E+00  0.2560E+03
     82.013  0.0000E+00  0.2560E+03
     82.041  0.0000E+00  0.2560E+03
     82.068  0.0000E+00  0.2560E+03
     82.096  0.0000E+00  0.2560E+03
     82.124  0.0000E+00  0.2560E+03
     82.152  0.0000E+00  0.2560E+03
     82.179  0.0000E+00  0.2560E+03
     82.207  0.0000E+00  0.2560E+03
     82.235  0.0000E+00  0.2560E+03
     82.262  0.0000E+00  0.2560E+03
     82.290  0.0000E+00  0.2560E+03
     82.318  0.0000E+00  0.2560E+03
     82.346  0.0000E+00  0.2560E+03
     82.373  0.0000E+00  0.2560E+03
     82.401  0.0000E+00  0.2560E+03
     82.429  0.0000E+00  0.2560E+03
     82.456  0.0000E+00  0.2560E+03
     82.484  0.0000E+00  0.2560E+03
     82.512  0.0000E+00  0.2560E+03
     82.540  0.0000E+00  0.2560E+03
     82.567  0.0000E+00  0.2560E+03
     82.595  0.0000E+00  0.2560E+03
     82.623  0.0000E+00  0.2560E+03
     82.650  0.0000E+00  0.2560E+03
     82.678  0.0000E+00  0.2560E+03
     82.706  0.0000E+00  0.2560E+03
     82.734  0.0000E+00  0.2560E+03
     82.761  0.0000E+00  0.2560E+03
     82.789  0.0000E+00  0.2560E+03
     82.817  0.0000E+00  0.2560E+03
     82.844  0.0000E+00  0.2560E+03
     82.872  0.0000E+00  0.2560E+03
     82.900  0.0000E+00  0.2560E+03
     82.928  0.0000E+00  0.2560E+03
     82.955  0.0000E+00  0.2560E+03
     82.983  0.0000E+00  0.2560E+03
     83.011  0.0000E+00  0.2560E+03
     83.038  0.0000E+00  0.2560E+03
     83.066  0.0000E+00  0.2560E+03
     83.094  0.0000E+00  0.2560E+03
     83.122  0.0000E+00  0.2560E+03
     83.149  0.0000E+00  0.2560E+03
     83.177  0.0000E+00  0.2560E+03
     83.205  0.0000E+00  0.2560E+03
     83.232  0.0000E+00  0.2560E+03
     83.260  0.0000E+00  0.2560E+03
     83.288  0.0000E+00  0.2560E+03
     83.316  0.0000E+00  0.2560E+03
     83.343  0.0000E+00  0.2560E+03
     83.371  0.0000E+00  0.2560E+03
     83.399  0.0000E+00  0.2560E+03
     83.426  0.0000E+00  0.2560E+03
     83.454  0.0000E+00  0.2560E+03
     83.482  0.0000E+00  0.2560E+03
     83.510  0.0000E+00  0.2560E+03
     83.537  0.0000E+00  0.2560E+03
     83.565  0.0000E+00  0.2560E+03
     83.593  0.0000E+00  0.2560E+03
     83.621  0.0000E+00  0.2560E+03
     83.648  0.0000E+00  0.2560E+03
     83.676  0.0000E+00  0.2560E+03
     83.704  0.0000E+00  0.2560E+03
     83.731  0.0000E+00  0.2560E+03
     83.759  0.0000E+00  0.2560E+03
     83.787  0.0000E+00  0.2560E+03
     83.815  0.0000E+00  0.2560E+03
     83.842  0.0000E+00  0.2560E+03
     83.870  0.0000E+00  0.2560E+03
     83.898  0.0000E+00  0.2560E+03
     83.925  0.0000E+00  0.2560E+03
     83.953  0.0000E+00  0.2560E+03
     83.981  0.0000E+00  0.2560E+03
     84.009  0.0000E+00  0.2560E+03
     84.036  0.0000E+00  0.2560E+03
